116   2013  11  27  1.829597  90.000000  0.000000  1686.000000
Altitude(km) Temperature(K)  Wind(m/s)   NaDensity(cm^-3)    TempErr(K)  WindErr(m/s)    RealValue
74.588364   200.000000  0.000000  -0.010497  -999.000000 -999.000000   -1
75.068031   200.000000  0.000000  0.005124  -999.000000 -999.000000   -1
75.547699   200.000000  0.000000  0.200959  -999.000000 -999.000000   -1
76.027367   200.000000  0.000000  0.522309  62.443003 39.135362   999
76.507035   266.811623  33.174244  3.912744  24.326123 16.281521   1
76.986703   217.684243  -3.028750  21.801703  9.889556 6.815881   1
77.466371   219.125032  -5.421767  48.178019  6.612767 4.534440   1
77.946039   218.614481  2.262693  84.411561  5.017413 3.451821   1
78.425707   229.354411  -3.772064  144.300694  3.828865 2.593837   1
78.905375   226.549267  -0.053424  147.455666  3.819361 2.600017   1
79.385043   222.973744  12.776842  132.696445  4.071187 2.804718   1
79.864711   220.908984  3.754428  122.902766  4.254729 2.921703   1
80.344379   209.516970  3.137597  111.275793  4.529895 3.150165   1
80.824047   205.392658  -2.532357  104.417808  4.713950 3.284398   1
81.303715   210.769889  0.190982  192.572232  3.473133 2.404947   1
81.783383   213.927409  3.693635  557.378649  2.047396 1.413622   1
82.263050   219.941639  2.574526  1146.859428  1.430617 0.980168   1
82.742718   215.701498  0.451094  1239.145105  1.387414 0.953503   1
83.222386   215.000541  2.106936  1282.633587  1.373514 0.945226   1
83.702054   211.302504  2.141521  1311.365568  1.369959 0.946349   1
84.181722   206.245809  3.866400  1351.486978  1.362888 0.947510   1
84.661390   205.542040  3.806089  1388.301370  1.353922 0.941644   1
85.141058   201.108577  4.086226  1449.985616  1.337459 0.934829   1
85.620726   199.831372  0.719089  1512.080971  1.318298 0.920620   1
86.100394   198.241432  0.737890  1542.677249  1.315099 0.919736   1
86.580062   195.390340  2.488664  1659.692972  1.279369 0.898329   1
87.059730   200.214153  1.147504  2123.375170  1.133568 0.790257   1
87.539398   203.871450  2.105670  2458.920292  1.057726 0.734125   1
88.019066   199.435916  0.496002  2383.694256  1.084517 0.755454   1
88.498734   195.024265  2.626089  2288.384169  1.118672 0.783840   1
88.978402   191.724852  0.160883  2203.644957  1.150072 0.807436   1
89.458069   188.777143  0.263563  2153.454649  1.174178 0.826914   1
89.937737   184.120385  -0.105650  2138.099437  1.191409 0.843336   1
90.417405   186.787213  2.025225  2346.896009  1.141919 0.805943   1
90.897073   200.941146  0.254789  3265.715217  0.962104 0.666054   1
91.376741   206.022833  -0.450711  4127.018909  0.858472 0.589969   1
91.856409   204.928567  1.627303  4208.533940  0.857225 0.589837   1
92.336077   200.612100  1.416499  4095.700044  0.877790 0.606251   1
92.815745   195.735156  0.055444  3918.113613  0.906976 0.628862   1
93.295413   190.701376  0.194316  3781.487962  0.933776 0.650769   1
93.775081   186.848241  1.854532  3697.997440  0.954682 0.668449   1
94.254749   184.018061  3.402382  3577.706879  0.980473 0.688862   1
94.734417   180.434116  1.605775  3512.966736  0.999711 0.704119   1
95.214085   177.207075  0.082474  3324.449845  1.038193 0.732902   1
95.693753   173.525192  -2.460332  3143.611737  1.079085 0.763705   1
96.173421   169.615335  -4.683189  3077.595635  1.102974 0.783166   1
96.653088   163.578833  -3.163989  2852.683514  1.164230 0.833536   1
97.132756   160.399216  -1.917549  2660.800296  1.220136 0.877296   1
97.612424   155.226436  -1.711223  2400.685883  1.305033 0.944802   1
98.092092   152.760617  -0.503648  2429.385025  1.312103 0.953234   1
98.571760   151.760081  -3.019048  2771.444863  1.237662 0.898458   1
99.051428   149.879298  -2.748365  2538.146142  1.306835 0.950565   1
99.531096   150.616344  0.481981  1910.965161  1.514707 1.101501   1
100.010764   150.717833  1.028427  1489.358538  1.726143 1.254732   1
100.490432   156.761105  2.873854  1117.850340  1.981397 1.428261   1
100.970100   158.217401  1.250131  841.105201  2.290762 1.645795   1
101.449768   166.451878  0.946328  503.730658  2.938704 2.086675   1
101.929436   181.512465  9.451948  204.764715  4.569434 3.204126   1
102.409104   186.181998  8.426163  118.735682  6.029012 4.211548   1
102.888772   183.839881  -1.050357  83.753485  7.252993 5.066250   1
103.368440   197.936832  7.499773  65.724953  8.166817 5.648824   1
103.848107   192.042450  2.164967  48.749045  9.639939 6.723078   1
104.327775   187.728095  0.443118  41.388275  10.612041 7.457681   1
104.807443   190.471223  2.576004  37.713752  11.181479 7.856325   1
105.287111   198.085534  -7.627790  35.864538  11.423965 7.909628   1
105.766779   204.188197  -10.586406  34.167998  11.711051 8.044934   1
106.246447   212.249125  23.860803  34.721657  11.692139 8.158869   1
106.726115   236.033255  4.122678  33.381638  11.798848 7.891739   1
107.205783   231.952543  -7.010403  33.593174  11.804370 7.877715   1
107.685451   237.274509  10.799030  31.106189  12.389809 8.331556   1
108.165119   217.960519  3.481910  26.631217  13.661311 9.373667   1
108.644787   202.917747  23.556760  24.347906  14.658117 10.471374   1
109.124455   252.091013  12.248730  19.761713  16.052215 10.788406   1
109.604123   258.752485  6.395709  17.823659  17.039605 11.370771   1
110.083791   216.399303  -20.631433  14.637974  19.416377 13.452570   1
110.563459   243.331454  -11.458057  12.705269  20.935155 14.216823   1
111.043126   244.829440  15.632731  10.343058  23.962737 16.747548   1
111.522794   226.526832  70.951485  8.651863  27.421932 21.888455   1
112.002462   255.774020  16.383949  7.729464  28.877782 20.296132   1
112.482130   237.179577  13.250955  4.853829  39.871824 29.353022   1
112.961798   208.750957  0.481800  3.093019  57.061539 44.158136   1
113.441466   249.001897  45.199121  2.727260  61.225123 48.733591   1
113.921134   168.676481  -117.908037  2.492755  65.016204 58.837213   1
114.400802   363.432626  93.752462  1.365356  106.506776 85.012002   1
114.880470   124.562059  -93.457792  1.267318  142.256049 163.225326   1
115.360138   182.144614  -116.496713  2.103255  74.457493 65.138663   1
115.839806   336.422461  -76.458152  1.248825  110.204569 76.096128   1
116.319474   200.000000  0.000000  1.529432  96.857212 68.918015   0
116.799142   173.867549  20.601852  1.465947  121.256001 106.355686   1
117.278810   200.000000  0.000000  1.372551  115.840675 90.855653   999
117.758478   200.000000  0.000000  0.856754  357.590589 77.965794   999
118.238145   200.000000  0.000000  0.448197  -999.000000 -999.000000   -1
118.717813   200.000000  0.000000  0.122603  -999.000000 -999.000000   -1
119.197481   200.000000  0.000000  0.735881  211.380627 5518.670734   999
119.677149   200.000000  0.000000  0.302605  -999.000000 -999.000000   -1
120.156817   200.000000  0.000000  0.254817  563.111605 269.834929   999
120.636485   200.000000  0.000000  0.123446  3096.897125 1848.195938   999
121.116153   200.000000  0.000000  0.226968  -999.000000 -999.000000   -1
121.595821   200.000000  0.000000  0.916837  159.439915 93.087063   0
122.075489   200.000000  0.000000  0.811095  285.605813 83.827059   999
122.555157   200.000000  0.000000  0.221389  -999.000000 -999.000000   -1
123.034825   200.000000  0.000000  -0.336736  -999.000000 -999.000000   -1
123.514493   200.000000  0.000000  0.486046  -999.000000 -999.000000   -1
123.994161   200.000000  0.000000  0.353735  -999.000000 -999.000000   -1
124.473829   200.000000  0.000000  -0.321242  -999.000000 -999.000000   -1
124.953496   200.000000  0.000000  -0.412308  -999.000000 -999.000000   -1
125.433164   200.000000  0.000000  -0.576408  -999.000000 -999.000000   -1
125.912832   200.000000  0.000000  0.548279  507.538290 142.517377   999
126.392500   200.000000  0.000000  0.301258  -999.000000 -999.000000   -1
126.872168   200.000000  0.000000  -0.197816  -999.000000 -999.000000   -1
127.351836   200.000000  0.000000  0.605635  363.314707 384.946444   999
127.831504   200.000000  0.000000  -0.250767  -999.000000 -999.000000   -1
128.311172   200.000000  0.000000  0.024875  -999.000000 -999.000000   -1
128.790840   200.000000  0.000000  -0.051994  -999.000000 -999.000000   -1
129.270508   298.528875  -18.732064  0.708478  227.064641 170.664579   1
129.750176   200.000000  0.000000  0.970268  361.128504 6079.634115   999
