116   2013  11  27  1.092708  90.000000  0.000000  1686.000000
Altitude(km) Temperature(K)  Wind(m/s)   NaDensity(cm^-3)    TempErr(K)  WindErr(m/s)    RealValue
74.588364   158.944199  -89.111272  0.798569  57.929111 31.509641   1
75.068031   285.870576  -95.858374  1.187746  41.455169 24.887529   1
75.547699   321.519104  44.765307  2.055094  33.019163 20.987949   1
76.027367   225.897865  -1.271200  4.635588  22.079930 15.015578   1
76.507035   216.507162  2.964627  12.776655  12.971274 9.024100   1
76.986703   224.554131  10.040159  32.329772  8.035769 5.554639   1
77.466371   220.506545  -0.332991  67.769247  5.546054 3.814375   1
77.946039   231.356359  0.696376  223.384062  3.046486 2.068241   1
78.425707   232.611510  1.758210  296.014032  2.661630 1.805285   1
78.905375   228.014317  4.025930  290.283211  2.711173 1.849997   1
79.385043   227.652020  -6.141693  257.897277  2.889167 1.961225   1
79.864711   219.299722  -5.389531  238.207714  3.037494 2.081032   1
80.344379   215.061062  4.208128  260.151830  2.937236 2.032623   1
80.824047   211.164620  -4.096008  298.171124  2.760712 1.909005   1
81.303715   212.681515  -4.622275  398.291181  2.399930 1.655624   1
81.783383   209.706579  0.461679  550.323083  2.059601 1.429119   1
82.263050   209.222167  -5.823929  822.817748  1.692177 1.170237   1
82.742718   209.183183  -0.948384  1037.756112  1.517920 1.052221   1
83.222386   205.257065  -1.967532  1145.406500  1.457248 1.013786   1
83.702054   203.858922  -1.793553  1166.289548  1.454811 1.013502   1
84.181722   201.705490  -1.172195  1305.203651  1.386198 0.968120   1
84.661390   200.797320  -2.304905  1381.661655  1.356409 0.947343   1
85.141058   206.004462  -4.265753  1765.532585  1.202560 0.833504   1
85.620726   203.635064  -2.987928  1952.023965  1.153286 0.801676   1
86.100394   200.219910  -0.404408  1984.290520  1.154929 0.806779   1
86.580062   198.944712  -2.323561  2044.534430  1.145814 0.800270   1
87.059730   192.996340  -2.590803  2065.864863  1.152845 0.810404   1
87.539398   197.837817  -2.610400  2390.597077  1.074374 0.750290   1
88.019066   197.673129  -2.413350  2599.725980  1.037272 0.724072   1
88.498734   196.447789  -4.450803  2584.030339  1.047889 0.731182   1
88.978402   190.753805  -0.654284  2494.143812  1.080018 0.759935   1
89.458069   185.108197  -2.321068  2358.572297  1.123653 0.794952   1
89.937737   181.743307  -3.817702  2245.858731  1.162766 0.824935   1
90.417405   177.155506  -4.995837  2085.771510  1.220475 0.870011   1
90.897073   174.112153  -5.536444  1985.546913  1.263527 0.903563   1
91.376741   169.995191  -5.663375  1929.400654  1.297025 0.932136   1
91.856409   169.244518  -6.332057  1927.073705  1.307091 0.939421   1
92.336077   168.665047  -4.479640  2086.906895  1.265569 0.910538   1
92.815745   172.059827  -7.273147  2365.793987  1.189432 0.849874   1
93.295413   173.973876  -7.161832  2664.212102  1.125147 0.801190   1
93.775081   175.005253  -8.840573  2948.622182  1.074457 0.762713   1
94.254749   176.895524  -8.937360  3162.262674  1.041885 0.736919   1
94.734417   177.387293  -8.127532  3221.583261  1.038761 0.733718   1
95.214085   176.519271  -7.607556  3107.976716  1.065923 0.753169   1
95.693753   174.142266  -5.496563  2939.014639  1.107356 0.784985   1
96.173421   170.223595  -7.150161  2751.501035  1.157434 0.823466   1
96.653088   167.878797  -5.426866  2915.783597  1.135897 0.810703   1
97.132756   165.033232  -3.338191  2870.029016  1.157975 0.829876   1
97.612424   161.938030  -0.463089  3270.266743  1.098001 0.790890   1
98.092092   158.608138  -0.338386  3097.052603  1.142335 0.825945   1
98.571760   160.128696  -0.816555  2269.335230  1.339664 0.965178   1
99.051428   170.347943  -1.451011  1552.317902  1.604062 1.137747   1
99.531096   174.715353  4.468434  1106.286117  1.903131 1.346534   1
100.010764   172.568714  5.081882  845.828129  2.195669 1.558681   1
100.490432   170.849631  -0.135596  748.678021  2.349353 1.665715   1
100.970100   168.803735  -0.361687  638.322883  2.565849 1.824166   1
101.449768   167.443860  0.040627  549.823471  2.785856 1.984997   1
101.929436   163.096814  -0.001943  475.764539  3.032062 2.174184   1
102.409104   162.531614  -2.814751  367.429059  3.471722 2.488568   1
102.888772   166.395572  -1.033912  246.428338  4.244832 3.032917   1
103.368440   176.039262  1.103676  128.704665  5.857680 4.150055   1
103.848107   193.665423  -5.672839  66.699201  8.083541 5.609561   1
104.327775   204.970716  -4.678243  46.161363  9.756575 6.718961   1
104.807443   201.115718  -4.189228  36.295226  11.175896 7.773902   1
105.287111   199.241373  -3.401035  28.823382  12.741668 8.941182   1
105.766779   182.125849  -7.736676  20.389489  15.799951 11.443056   1
106.246447   215.020414  -5.464584  17.684008  16.636731 11.621286   1
106.726115   217.883255  9.805423  15.573152  18.013873 12.766962   1
107.205783   207.451784  42.879476  15.737911  18.252101 13.737020   1
107.685451   287.508329  -26.736012  14.738733  18.159330 11.762266   1
108.165119   196.646928  8.639748  15.398474  18.781250 13.691645   1
108.644787   254.708614  28.586547  14.585784  18.825841 13.108238   1
109.124455   291.858301  -1.961819  13.507513  19.495165 12.817921   1
109.604123   228.942874  -32.131866  11.627975  21.584614 14.939021   1
110.083791   281.461822  9.967403  10.137954  23.406217 15.891879   1
110.563459   212.702679  -48.678376  8.612127  26.268896 18.814190   1
111.043126   227.158467  35.231381  7.922784  28.317688 21.420139   1
111.522794   228.535862  50.771139  6.791709  31.463501 24.802936   1
112.002462   363.394398  35.578847  5.659547  34.581739 23.406356   1
112.482130   302.467936  -59.889216  4.293657  40.646487 27.422541   1
112.961798   263.505569  18.769780  4.212155  42.906047 31.771397   1
113.441466   370.182319  32.594326  3.885555  45.314062 31.280249   1
113.921134   278.873025  -32.216488  2.708332  58.246123 41.898444   1
114.400802   200.000000  0.000000  2.916462  56.772817 34.930376   0
114.880470   200.000000  0.000000  1.776099  82.916510 56.540033   0
115.360138   326.248786  122.258853  1.810391  84.585885 77.503262   1
115.839806   114.349963  4.806227  1.599093  157.326931 147.675225   1
116.319474   390.830835  -91.900533  1.938855  76.313856 50.314129   1
116.799142   210.866614  124.035055  0.997267  147.840244 205.309110   1
117.278810   200.000000  0.000000  0.798807  194.323814 202.780852   999
117.758478   200.000000  0.000000  1.208611  121.928057 70.798901   999
118.238145   200.000000  0.000000  1.188494  199.107313 76.827300   999
118.717813   291.837697  149.704992  1.136437  131.850841 151.237828   1
119.197481   200.000000  0.000000  1.045790  139.553166 77.391100   999
119.677149   200.000000  0.000000  -0.161723  -999.000000 -999.000000   -1
120.156817   200.000000  0.000000  -0.014754  -999.000000 -999.000000   -1
120.636485   200.000000  0.000000  -0.404515  -999.000000 -999.000000   -1
121.116153   200.000000  0.000000  1.092871  151.567931 69.611329   999
121.595821   200.000000  0.000000  0.397726  -999.000000 -999.000000   -1
122.075489   487.428075  -139.925693  0.857383  166.503137 107.579071   1
122.555157   200.000000  0.000000  0.783202  2780.910054 73.567105   999
123.034825   216.767507  -53.251681  0.848496  179.562263 148.748875   1
123.514493   200.000000  0.000000  0.761211  194.695842 125.442770   999
123.994161   200.000000  0.000000  0.290542  -999.000000 -999.000000   -1
124.473829   200.000000  0.000000  -0.119621  -999.000000 -999.000000   -1
124.953496   200.000000  0.000000  1.227702  140.514512 68.403347   999
125.433164   200.000000  0.000000  0.061485  -999.000000 -999.000000   -1
125.912832   200.000000  0.000000  0.500072  289.660230 184.260904   0
126.392500   200.000000  0.000000  -0.505545  -999.000000 -999.000000   -1
126.872168   200.000000  0.000000  -0.057506  -999.000000 -999.000000   -1
127.351836   200.000000  0.000000  0.209851  -999.000000 -999.000000   -1
127.831504   200.000000  0.000000  0.477920  326.432361 183.771168   999
128.311172   200.000000  0.000000  0.420408  -999.000000 -999.000000   -1
128.790840   113.301302  -30.316805  0.162536  1686.928102 1662.851641   1
129.270508   200.000000  0.000000  0.604831  -999.000000 -999.000000   -1
129.750176   200.000000  0.000000  -0.676417  -999.000000 -999.000000   -1
