116   2013  11  27  2.770300  90.000000  0.000000  1686.000000
Altitude(km) Temperature(K)  Wind(m/s)   NaDensity(cm^-3)    TempErr(K)  WindErr(m/s)    RealValue
74.588364   200.000000  0.000000  0.019310  -999.000000 -999.000000   -1
75.068031   200.000000  0.000000  -0.054410  -999.000000 -999.000000   -1
75.547699   200.000000  0.000000  0.192362  72.894847 42.322381   999
76.027367   200.000000  0.000000  -0.216957  -999.000000 -999.000000   -1
76.507035   225.884068  -125.265207  0.468923  73.588313 40.491812   1
76.986703   221.435919  6.373324  17.896315  11.331178 7.658774   1
77.466371   237.280502  -2.737795  87.956165  4.999382 3.291108   1
77.946039   235.649104  3.266124  94.226024  4.869414 3.221245   1
78.425707   218.145462  -2.393058  84.242692  5.218753 3.506030   1
78.905375   219.549986  -2.422699  82.613711  5.301098 3.557016   1
79.385043   217.003511  0.010757  88.638746  5.158214 3.475217   1
79.864711   204.770775  1.854920  96.744809  5.005818 3.422648   1
80.344379   207.921474  -1.526702  140.905761  4.153408 2.821471   1
80.824047   223.068005  0.860245  495.923488  2.203850 1.471706   1
81.303715   216.263142  -1.132032  843.151148  1.704723 1.144983   1
81.783383   217.903466  1.086766  1110.153645  1.494414 1.002827   1
82.263050   218.771805  1.179619  1194.416660  1.449431 0.971477   1
82.742718   219.915493  -2.767116  1499.158485  1.300093 0.868143   1
83.222386   220.537932  -1.493366  1898.608912  1.162748 0.776076   1
83.702054   219.369788  1.603427  2119.146045  1.109313 0.742194   1
84.181722   220.261149  -1.006478  2255.214010  1.081476 0.721434   1
84.661390   219.037766  1.025510  2321.323833  1.074309 0.717950   1
85.141058   215.239052  2.011634  2278.267316  1.094115 0.734163   1
85.620726   211.200746  3.134759  2215.880717  1.119679 0.754721   1
86.100394   207.723496  1.058350  2161.459269  1.143136 0.772179   1
86.580062   202.711218  0.944718  2099.965602  1.171324 0.795299   1
87.059730   198.508365  2.150003  2047.393926  1.198125 0.817650   1
87.539398   194.929598  -0.810992  2041.225361  1.210400 0.827724   1
88.019066   192.533429  1.780067  2064.170665  1.214719 0.833849   1
88.498734   188.426405  -0.535275  2038.100891  1.234365 0.850053   1
88.978402   185.938686  -1.260770  2012.302382  1.253121 0.864823   1
89.458069   188.525835  -1.012761  2126.471795  1.223791 0.841359   1
89.937737   192.499497  -0.984870  2565.723026  1.117154 0.763689   1
90.417405   191.193221  -3.520010  2879.073698  1.062075 0.725654   1
90.897073   188.958048  -1.674446  2886.535491  1.070525 0.733539   1
91.376741   185.858485  -1.619998  2827.286271  1.092246 0.750734   1
91.856409   182.682900  -2.986019  2751.464601  1.117868 0.770273   1
92.336077   178.622264  -0.417870  2672.612353  1.147718 0.795497   1
92.815745   173.686125  -0.804957  2566.829442  1.185924 0.826591   1
93.295413   172.650932  -0.749691  2471.577669  1.218096 0.849520   1
93.775081   166.155727  -2.564999  2403.339133  1.254179 0.881090   1
94.254749   162.258194  -1.046494  2356.909037  1.282994 0.906382   1
94.734417   159.509618  -0.768682  2382.180096  1.290371 0.914627   1
95.214085   159.093129  0.090960  2353.154075  1.307782 0.927186   1
95.693753   156.358366  -0.978716  2350.845158  1.322868 0.940315   1
96.173421   154.232570  -2.197013  2385.308345  1.326464 0.944432   1
96.653088   151.092841  0.774197  2232.965223  1.389493 0.994851   1
97.132756   146.938256  -0.026799  2198.274914  1.421669 1.023101   1
97.612424   144.561552  1.010976  2193.776325  1.440247 1.040103   1
98.092092   143.907583  -0.086881  2270.313141  1.426287 1.029482   1
98.571760   141.787767  -0.099570  2307.729652  1.430898 1.035341   1
99.051428   140.678842  -2.346444  2185.945803  1.482689 1.072417   1
99.531096   151.925285  -2.127429  1467.879749  1.774221 1.260129   1
100.010764   162.351912  -0.986074  867.088106  2.279585 1.594878   1
100.490432   169.387292  0.295285  552.485033  2.843775 1.971742   1
100.970100   171.791748  -2.344311  418.009276  3.275803 2.261183   1
101.449768   168.824684  -5.819769  298.771067  3.912782 2.709628   1
101.929436   173.327836  -9.723857  169.722433  5.198376 3.579396   1
102.409104   187.079738  4.510165  78.390685  7.666145 5.253188   1
102.888772   213.277980  3.625127  59.082501  8.729379 5.808455   1
103.368440   190.582722  -9.994494  57.254799  9.050083 6.148805   1
103.848107   209.111790  -1.025034  61.677162  8.634852 5.755124   1
104.327775   207.149004  -7.502009  61.323916  8.700444 5.793287   1
104.807443   224.000239  0.115168  64.066118  8.478090 5.558979   1
105.287111   214.515215  7.847188  56.149328  9.190414 6.131966   1
105.766779   216.029474  -2.549318  48.171271  9.975129 6.616861   1
106.246447   239.068449  0.710920  41.150889  10.784147 7.012260   1
106.726115   228.416509  -3.906206  36.918375  11.518627 7.569965   1
107.205783   241.101591  -16.602994  33.671807  12.056369 7.787340   1
107.685451   217.555647  22.325953  27.749021  13.736824 9.395108   1
108.165119   208.594336  -1.854022  22.230238  15.620997 10.659954   1
108.644787   240.377151  -0.106975  18.998225  16.824540 11.147740   1
109.124455   246.282268  41.262667  15.454879  19.147230 13.230421   1
109.604123   238.256330  6.714227  11.821430  22.425744 15.264777   1
110.083791   255.786100  39.693561  10.597517  24.071627 16.750260   1
110.563459   255.266805  -62.506087  7.026031  30.256347 20.200088   1
111.043126   210.902720  3.090528  6.409322  34.184738 24.812699   1
111.522794   175.439173  13.879657  5.256049  42.043650 32.961502   1
112.002462   292.492455  -38.587059  4.796412  39.525014 26.156272   1
112.482130   248.586893  -84.297026  4.329457  42.326479 29.404623   1
112.961798   210.423143  68.735346  3.045443  59.952518 53.313527   1
113.441466   141.225644  -77.199822  1.679185  107.904749 104.846647   1
113.921134   200.000000  0.000000  2.530135  65.626867 48.888225   0
114.400802   190.501127  73.811736  2.693049  69.190662 67.401885   1
114.880470   141.008638  -122.156415  1.755960  94.776616 100.799306   1
115.360138   209.541159  74.506006  1.336903  120.845591 118.130780   1
115.839806   200.000000  0.000000  1.944534  87.276914 41.471727   999
116.319474   164.476176  -139.628878  1.173076  124.793069 122.837601   1
116.799142   344.727031  -131.077275  1.793082  84.697897 55.719533   1
117.278810   200.000000  0.000000  0.846718  219.826474 88.461699   999
117.758478   200.000000  0.000000  0.907220  -999.000000 -999.000000   -1
118.238145   200.000000  0.000000  0.680938  193.377673 159.302974   0
118.717813   200.000000  0.000000  0.527433  -999.000000 -999.000000   -1
119.197481   200.000000  0.000000  0.360483  -999.000000 -999.000000   -1
119.677149   200.000000  0.000000  0.017777  -999.000000 -999.000000   -1
120.156817   200.000000  0.000000  0.328713  -999.000000 -999.000000   -1
120.636485   200.000000  0.000000  0.326061  -999.000000 -999.000000   -1
121.116153   200.000000  0.000000  0.348743  -999.000000 -999.000000   -1
121.595821   200.000000  0.000000  -0.229645  -999.000000 -999.000000   -1
122.075489   200.000000  0.000000  -0.330550  -999.000000 -999.000000   -1
122.555157   200.000000  0.000000  0.357268  -999.000000 -999.000000   -1
123.034825   200.000000  0.000000  -0.041087  -999.000000 -999.000000   -1
123.514493   200.000000  0.000000  -0.245668  -999.000000 -999.000000   -1
123.994161   200.000000  0.000000  -0.234855  -999.000000 -999.000000   -1
124.473829   200.000000  0.000000  -0.510048  -999.000000 -999.000000   -1
124.953496   200.000000  0.000000  1.276188  154.050079 97.330574   999
125.433164   200.000000  0.000000  -0.321591  -999.000000 -999.000000   -1
125.912832   200.000000  0.000000  -0.047991  -999.000000 -999.000000   -1
126.392500   200.000000  0.000000  -0.433475  -999.000000 -999.000000   -1
126.872168   200.000000  0.000000  -0.641149  -999.000000 -999.000000   -1
127.351836   200.000000  0.000000  0.003104  -999.000000 -999.000000   -1
127.831504   200.000000  0.000000  0.995805  169.916214 108.549039   0
128.311172   200.000000  0.000000  0.032657  -999.000000 -999.000000   -1
128.790840   200.000000  0.000000  0.378192  -999.000000 -999.000000   -1
129.270508   200.000000  0.000000  0.331320  478.945240 346.150033   999
129.750176   200.000000  0.000000  0.667061  290.854197 633.103868   999
