116   2013  11  27  11.361481  90.000000  0.000000  1686.000000
Altitude(km) Temperature(K)  Wind(m/s)   NaDensity(cm^-3)    TempErr(K)  WindErr(m/s)    RealValue
74.588364   200.000000  0.000000  0.232805  146.983030 47.108805   0
75.068031   200.000000  0.000000  -0.047350  -999.000000 -999.000000   -1
75.547699   200.000000  0.000000  -0.092619  -999.000000 -999.000000   -1
76.027367   200.000000  0.000000  -0.114756  -999.000000 -999.000000   -1
76.507035   200.000000  0.000000  0.020489  -999.000000 -999.000000   -1
76.986703   200.000000  0.000000  -0.210074  -999.000000 -999.000000   -1
77.466371   200.000000  0.000000  0.270465  -999.000000 -999.000000   -1
77.946039   200.000000  0.000000  -0.003941  -999.000000 -999.000000   -1
78.425707   200.000000  0.000000  0.129367  -999.000000 -999.000000   -1
78.905375   200.000000  0.000000  0.183578  -999.000000 -999.000000   -1
79.385043   200.000000  0.000000  -0.207931  -999.000000 -999.000000   -1
79.864711   200.000000  0.000000  0.200861  -999.000000 -999.000000   -1
80.344379   213.688521  -3.010899  51.299507  7.455613 5.006272   1
80.824047   217.341329  2.426012  592.407931  2.173072 1.447485   1
81.303715   220.675302  -1.109956  1489.099486  1.374774 0.910021   1
81.783383   228.468857  2.694747  2403.876408  1.086346 0.714494   1
82.263050   226.511044  1.392356  2658.762630  1.040663 0.684865   1
82.742718   221.775362  3.691358  2613.324109  1.059789 0.701392   1
83.222386   220.866487  2.030544  2548.368735  1.080823 0.714797   1
83.702054   217.974754  2.771647  2462.929089  1.108812 0.735419   1
84.181722   211.948717  2.478908  2419.966886  1.129899 0.753751   1
84.661390   209.273160  2.183377  2355.282132  1.154934 0.772122   1
85.141058   205.342484  -0.092887  2305.618956  1.177587 0.789222   1
85.620726   200.430854  1.453655  2330.001849  1.183821 0.798187   1
86.100394   201.332690  1.078289  2507.771590  1.147907 0.772424   1
86.580062   200.268885  1.652967  2597.770412  1.136536 0.765436   1
87.059730   199.208349  1.416366  2700.067485  1.123203 0.756717   1
87.539398   198.269356  -0.503292  2843.138370  1.102317 0.742024   1
88.019066   196.245258  0.161671  3080.695763  1.068070 0.720388   1
88.498734   196.600628  -0.546015  3123.616411  1.067575 0.718773   1
88.978402   198.722506  0.193195  3421.667311  1.025524 0.688337   1
89.458069   198.313187  -0.254793  3563.745147  1.012123 0.678798   1
89.937737   195.557719  0.228657  3678.062906  1.005605 0.676146   1
90.417405   193.924215  -0.326573  3628.491626  1.020883 0.686803   1
90.897073   192.760277  -0.252792  3649.114183  1.026202 0.690636   1
91.376741   192.393230  -0.084309  3743.350116  1.020679 0.686525   1
91.856409   189.117929  0.332942  3642.596335  1.045204 0.705274   1
92.336077   185.141775  -1.460662  3483.341852  1.080041 0.730884   1
92.815745   180.216293  -1.777237  3336.142484  1.117070 0.759840   1
93.295413   178.594696  -2.607221  3217.230544  1.147202 0.780804   1
93.775081   176.036883  -0.999863  3193.885109  1.163223 0.794318   1
94.254749   174.772587  -0.328729  3158.534711  1.179647 0.806375   1
94.734417   171.860791  -1.414318  2930.353151  1.237325 0.847755   1
95.214085   166.070877  -0.056434  2704.798414  1.307693 0.903125   1
95.693753   164.829031  0.571750  2514.927458  1.367807 0.945807   1
96.173421   158.324290  0.203133  2336.582617  1.443687 1.006679   1
96.653088   152.719656  0.208933  2193.291106  1.515616 1.064878   1
97.132756   150.794931  -1.206643  2066.229642  1.576927 1.109355   1
97.612424   150.463015  -1.293824  2016.994992  1.606895 1.130067   1
98.092092   148.505817  1.233095  1964.898443  1.645936 1.161986   1
98.571760   146.577933  -1.134885  1849.411192  1.713271 1.210454   1
99.051428   144.667436  -1.059253  1750.371790  1.779638 1.260301   1
99.531096   142.733594  -2.107476  1657.974322  1.847611 1.310779   1
100.010764   139.974079  -0.825476  1537.694700  1.944296 1.385672   1
100.490432   144.144511  -0.884808  1368.901511  2.050947 1.451146   1
100.970100   150.117101  -3.927551  1010.241579  2.367652 1.656417   1
101.449768   165.072781  0.414751  621.430201  2.959878 2.030809   1
101.929436   175.700169  -2.060029  378.002441  3.763152 2.542243   1
102.409104   181.713307  -3.589696  264.596645  4.496184 3.013541   1
102.888772   188.704801  -2.054779  201.098307  5.158714 3.433126   1
103.368440   187.722636  2.423206  160.076036  5.837255 3.905334   1
103.848107   184.083766  -6.356173  138.462532  6.329228 4.236601   1
104.327775   190.454777  4.935468  127.656734  6.606992 4.419604   1
104.807443   183.989961  -3.298616  107.291916  7.298321 4.904350   1
105.287111   188.658499  6.682970  97.345273  7.693911 5.178588   1
105.766779   186.901140  -5.206763  85.046281  8.286512 5.554738   1
106.246447   183.108066  5.039395  70.899764  9.228543 6.274735   1
106.726115   189.290464  -8.907128  50.841940  10.950320 7.357368   1
107.205783   223.016675  4.146951  38.521430  12.484599 8.164786   1
107.685451   229.629545  -14.584282  29.492701  14.404067 9.304376   1
108.165119   291.856370  9.908329  23.408460  16.311452 10.164857   1
108.644787   276.055339  15.685060  18.502120  18.811066 12.024788   1
109.124455   302.531152  33.567332  15.905324  20.681952 13.211165   1
109.604123   278.722094  -9.329642  15.790108  20.711455 13.052266   1
110.083791   279.612954  2.651927  13.916515  22.514199 14.362625   1
110.563459   273.390613  7.518075  11.730784  25.181848 16.336410   1
111.043126   316.570836  -20.894266  10.202475  27.262817 16.861176   1
111.522794   276.049538  -48.891689  10.020326  27.600412 17.447682   1
112.002462   259.111594  7.213147  10.361699  27.785646 18.393871   1
112.482130   249.233584  -10.283208  8.293396  32.225224 21.484383   1
112.961798   323.355480  28.227447  8.421679  31.909735 20.590284   1
113.441466   344.119102  9.940647  7.769632  33.666595 21.140717   1
113.921134   320.820967  -58.650304  8.083420  32.381859 19.872652   1
114.400802   272.451505  39.785081  8.185512  33.408266 23.007073   1
114.880470   222.717194  7.295643  6.934189  38.416075 27.100096   1
115.360138   307.961927  -160.459970  4.749631  46.287759 28.673017   1
115.839806   278.212611  57.154411  5.717619  43.538152 31.440986   1
116.319474   384.243886  -59.993639  5.506022  43.426172 26.056332   1
116.799142   259.793869  17.539349  4.820724  49.664021 34.774437   1
117.278810   463.620515  31.539034  5.809783  43.952511 26.738369   1
117.758478   233.451371  -70.085522  5.250406  46.179415 31.757098   1
118.238145   200.000000  0.000000  5.722975  44.748331 33.353970   0
118.717813   335.539292  64.267562  5.100854  48.684357 33.735056   1
119.197481   200.000000  0.000000  5.912607  42.837628 24.499780   0
119.677149   200.000000  0.000000  4.195887  55.934391 30.307092   0
120.156817   187.036698  -89.989597  4.596338  54.059317 41.497202   1
120.636485   182.427705  55.866408  2.734232  90.930626 82.792148   1
121.116153   251.742567  -59.023213  3.770438  61.288164 41.979594   1
121.595821   229.866856  -117.355008  3.214577  68.017744 48.990495   1
122.075489   456.825055  184.344626  2.699308  89.043239 70.997447   1
122.555157   200.000000  0.000000  2.785514  87.355518 442.634333   0
123.034825   184.571395  77.506069  3.280791  79.699401 79.612691   1
123.514493   200.000000  0.000000  1.973456  108.532155 56.040119   999
123.994161   200.000000  0.000000  3.219538  75.596687 46.277182   999
124.473829   152.484513  -57.330411  1.819820  142.677640 121.710628   1
124.953496   461.017099  73.220208  1.710013  128.264981 86.889601   1
125.433164   179.543292  33.628349  1.542040  162.444716 140.290049   1
125.912832   200.000000  0.000000  1.157468  156.577267 3233.275898   999
126.392500   200.000000  0.000000  1.273339  -999.000000 -999.000000   -1
126.872168   200.000000  0.000000  2.391990  100.033466 87.709376   0
127.351836   119.355396  42.841981  0.970168  362.079226 387.440204   1
127.831504   200.000000  0.000000  0.834615  -999.000000 -999.000000   -1
128.311172   200.000000  0.000000  1.446778  220.365708 3606.630679   0
128.790840   200.000000  0.000000  0.353784  522.125087 3607.005010   999
129.270508   200.000000  0.000000  1.299451  -999.000000 -999.000000   -1
129.750176   270.640464  107.081512  1.715998  137.476385 128.466112   1
