116   2013  11  27  10.522847  90.000000  0.000000  1686.000000
Altitude(km) Temperature(K)  Wind(m/s)   NaDensity(cm^-3)    TempErr(K)  WindErr(m/s)    RealValue
74.588364   200.000000  0.000000  0.158022  -999.000000 -999.000000   -1
75.068031   200.000000  0.000000  0.521509  83.573908 45.222644   0
75.547699   200.000000  0.000000  -0.094019  -999.000000 -999.000000   -1
76.027367   200.000000  0.000000  0.089390  102.743432 57.978832   999
76.507035   200.000000  0.000000  -0.107347  -999.000000 -999.000000   -1
76.986703   200.000000  0.000000  -0.074349  -999.000000 -999.000000   -1
77.466371   200.000000  0.000000  0.370781  105.216486 43.893837   999
77.946039   200.000000  0.000000  -0.179653  -999.000000 -999.000000   -1
78.425707   200.000000  0.000000  0.196177  -999.000000 -999.000000   -1
78.905375   200.000000  0.000000  -0.223759  -999.000000 -999.000000   -1
79.385043   200.000000  0.000000  -0.065928  -999.000000 -999.000000   -1
79.864711   200.000000  0.000000  -0.201975  -999.000000 -999.000000   -1
80.344379   200.000000  0.000000  0.202735  -999.000000 -999.000000   -1
80.824047   153.793478  -65.595622  1.412236  69.820587 48.988601   1
81.303715   204.147118  6.437688  23.989952  11.283011 7.836219   1
81.783383   194.816408  0.585805  166.783042  4.186463 2.883770   1
82.263050   204.304753  0.086719  386.167743  2.737913 1.860665   1
82.742718   203.129303  3.836495  869.338598  1.836354 1.251445   1
83.222386   205.528423  -1.658428  1439.065248  1.431452 0.969076   1
83.702054   211.998886  -0.097581  2258.314371  1.145705 0.770219   1
84.181722   218.943577  1.470236  2839.714387  1.025213 0.684164   1
84.661390   222.302442  -1.667072  3464.814358  0.932474 0.618455   1
85.141058   223.160829  -0.995792  3757.381607  0.901703 0.597177   1
85.620726   219.851059  0.311236  3688.327713  0.918441 0.610243   1
86.100394   214.611997  0.510503  3572.920785  0.942492 0.629240   1
86.580062   212.515314  -0.289403  3477.093967  0.963228 0.643648   1
87.059730   213.486653  0.610078  3669.174763  0.944055 0.629871   1
87.539398   216.620898  -0.059890  3969.860038  0.912453 0.605841   1
88.019066   219.019380  2.515741  4516.150207  0.861164 0.570538   1
88.498734   220.530906  2.025541  4665.146098  0.852921 0.563311   1
88.978402   213.676753  0.683184  4620.615627  0.866188 0.575170   1
89.458069   213.708625  2.485034  4649.138493  0.870325 0.577775   1
89.937737   211.526062  1.034792  4548.466603  0.887270 0.589189   1
90.417405   209.250993  2.815585  4417.365440  0.908597 0.604778   1
90.897073   201.728213  -0.768140  4287.241023  0.932893 0.624263   1
91.376741   203.155711  1.634282  4210.579976  0.947776 0.633261   1
91.856409   202.410916  1.063908  4150.277627  0.961890 0.642245   1
92.336077   198.585415  0.718209  4025.963374  0.986316 0.660616   1
92.815745   193.429163  0.971595  3834.871479  1.022102 0.688178   1
93.295413   189.223136  1.011861  3704.136129  1.051243 0.710711   1
93.775081   187.772067  1.742790  3620.550514  1.072348 0.725802   1
94.254749   185.906348  1.128798  3450.962743  1.107825 0.750470   1
94.734417   180.573421  1.550709  3237.530813  1.158226 0.789441   1
95.214085   176.172672  1.655009  3064.432046  1.204742 0.825188   1
95.693753   172.160468  0.331966  2886.963807  1.255515 0.863111   1
96.173421   168.648970  0.558784  2794.441593  1.290817 0.890986   1
96.653088   166.772117  1.798447  2683.424506  1.329827 0.920192   1
97.132756   164.403987  1.363704  2500.071248  1.391498 0.964972   1
97.612424   160.152127  1.677055  2288.605433  1.474024 1.027873   1
98.092092   157.828157  1.835919  2119.346892  1.547700 1.082210   1
98.571760   156.930540  3.543852  2009.168507  1.602511 1.122509   1
99.051428   152.775782  1.871652  1882.276679  1.678478 1.180910   1
99.531096   150.912512  3.062881  1745.945017  1.760440 1.242311   1
100.010764   147.582917  2.325893  1640.969688  1.839596 1.303392   1
100.490432   146.596734  6.369846  1505.095963  1.938020 1.378730   1
100.970100   143.185941  5.539974  1368.137847  2.060995 1.472445   1
101.449768   142.941001  7.131532  1219.683404  2.197419 1.571972   1
101.929436   145.173729  2.596164  976.024688  2.455802 1.743836   1
102.409104   147.606136  2.444356  783.273277  2.742189 1.939407   1
102.888772   148.097866  -2.107541  629.953523  3.069349 2.163001   1
103.368440   147.446811  0.691762  517.959413  3.413062 2.412253   1
103.848107   149.393550  -0.163153  385.294790  3.966217 2.794902   1
104.327775   153.184971  -3.294486  267.225110  4.757996 3.331251   1
104.807443   159.978410  1.009660  172.230807  5.915728 4.119909   1
105.287111   172.932970  0.995266  107.543018  7.427357 5.095863   1
105.766779   172.752747  -17.359327  55.907807  10.492665 7.198099   1
106.246447   204.067719  -15.931180  35.938467  12.942507 8.589855   1
106.726115   240.178787  -2.802374  25.755011  15.375639 9.953314   1
107.205783   252.316966  38.068055  19.782714  18.060066 12.105152   1
107.685451   322.073345  19.914974  17.036633  19.545639 12.151534   1
108.165119   210.029270  -15.979282  14.113714  22.603368 15.337335   1
108.644787   265.967821  1.180565  13.671614  22.555721 14.598624   1
109.124455   286.190649  -34.918097  12.136646  24.042700 15.052488   1
109.604123   266.358669  -7.464892  11.318384  25.555015 16.570599   1
110.083791   347.602741  44.231035  8.333926  31.455657 20.286636   1
110.563459   312.100422  24.785880  9.713157  28.499495 18.391916   1
111.043126   349.771241  4.666518  7.817429  32.828274 20.476174   1
111.522794   375.594418  -2.337608  7.280062  34.636858 21.238938   1
112.002462   286.177936  -11.124681  8.299333  31.881668 20.578666   1
112.482130   359.819148  64.491931  6.503319  38.502989 25.617673   1
112.961798   207.985876  -49.571512  6.532232  39.086537 27.508161   1
113.441466   203.989066  -33.518181  4.121568  56.063292 40.619790   1
113.921134   300.833389  -23.100591  5.592994  42.441274 27.405198   1
114.400802   287.959209  35.918850  5.871541  42.134083 29.058515   1
114.880470   334.477154  -71.167432  6.490036  38.181190 23.411743   1
115.360138   213.943632  37.043946  4.322951  56.278929 43.642098   1
115.839806   310.747464  73.955534  4.711069  50.629217 36.898466   1
116.319474   312.997533  -41.540987  5.565246  43.578986 27.671447   1
116.799142   275.921694  26.063975  4.140253  56.148393 39.551899   1
117.278810   297.309797  -47.793655  4.234221  53.770086 34.973577   1
117.758478   248.882916  113.479961  4.305774  56.749668 52.754282   1
118.238145   228.270562  44.434730  2.380905  92.805233 74.462281   1
118.717813   305.910762  42.287340  3.702188  62.474375 44.083119   1
119.197481   153.044558  -9.708333  3.275360  86.628738 68.721475   1
119.677149   216.060883  -50.036758  2.582375  85.992079 63.012512   1
120.156817   421.842516  185.534236  3.624039  69.383105 56.923510   1
120.636485   200.000000  0.000000  2.922313  76.245046 41.248266   0
121.116153   200.000000  0.000000  1.642337  131.577536 66.035984   999
121.595821   150.721190  11.367315  2.363329  121.586701 100.850598   1
122.075489   215.370086  -31.983005  4.106913  62.089631 44.638524   1
122.555157   382.076030  -36.421847  2.987023  75.742013 47.486137   1
123.034825   200.000000  0.000000  2.187592  103.620045 256.864062   0
123.514493   286.396373  24.770921  2.943792  79.784424 56.856580   1
123.994161   200.000000  0.000000  3.401630  76.448183 45.021610   999
124.473829   200.000000  0.000000  2.518606  91.515531 47.524093   999
124.953496   200.000000  0.000000  1.851756  110.197968 95.194536   999
125.433164   273.532015  32.741455  0.506346  399.807333 310.319644   1
125.912832   200.000000  0.000000  2.319847  108.029082 175.429139   999
126.392500   200.000000  0.000000  1.140877  -999.000000 -999.000000   -1
126.872168   200.000000  0.000000  1.391787  159.076892 87.216176   999
127.351836   198.201143  56.003233  0.767078  310.136707 288.181479   1
127.831504   200.000000  0.000000  0.588395  -999.000000 -999.000000   -1
128.311172   200.000000  0.000000  0.950258  -999.000000 -999.000000   -1
128.790840   200.000000  0.000000  1.146816  -999.000000 -999.000000   -1
129.270508   200.000000  0.000000  1.720632  642.274560 48.524542   999
129.750176   200.000000  0.000000  1.639175  186.363979 136.093522   999
