116   2013  11  27  10.179842  90.000000  0.000000  1686.000000
Altitude(km) Temperature(K)  Wind(m/s)   NaDensity(cm^-3)    TempErr(K)  WindErr(m/s)    RealValue
74.588364   200.000000  0.000000  -0.098533  -999.000000 -999.000000   -1
75.068031   200.000000  0.000000  -0.149966  -999.000000 -999.000000   -1
75.547699   200.000000  0.000000  0.113959  -999.000000 -999.000000   -1
76.027367   200.000000  0.000000  -0.005086  -999.000000 -999.000000   -1
76.507035   200.000000  0.000000  -0.039967  -999.000000 -999.000000   -1
76.986703   200.000000  0.000000  0.098794  -999.000000 -999.000000   -1
77.466371   200.000000  0.000000  0.032303  -999.000000 -999.000000   -1
77.946039   200.000000  0.000000  -0.179089  -999.000000 -999.000000   -1
78.425707   200.000000  0.000000  -0.112996  -999.000000 -999.000000   -1
78.905375   200.000000  0.000000  0.338915  111.303032 57.464440   999
79.385043   200.000000  0.000000  -0.347668  -999.000000 -999.000000   -1
79.864711   200.000000  0.000000  -0.174590  -999.000000 -999.000000   -1
80.344379   193.839828  -18.249492  4.052384  31.401080 22.437722   1
80.824047   213.413405  -5.837128  107.284104  5.100164 3.440198   1
81.303715   206.976797  -6.475361  373.469280  2.743777 1.856768   1
81.783383   205.785632  -0.209880  684.423828  2.041766 1.387271   1
82.263050   210.468926  -1.668279  1268.458851  1.503333 1.014526   1
82.742718   215.523572  0.359017  1897.129575  1.234068 0.828707   1
83.222386   226.266903  2.594475  2729.740529  1.030939 0.684929   1
83.702054   224.302991  1.780773  2964.501747  0.996844 0.662825   1
84.181722   222.782149  3.853530  3142.505563  0.976149 0.650401   1
84.661390   221.791518  2.803294  3292.663966  0.960638 0.639787   1
85.141058   222.498793  1.927872  3568.546991  0.928884 0.617302   1
85.620726   227.002829  2.260465  4060.543434  0.875485 0.578649   1
86.100394   227.135931  1.405735  4289.668600  0.857880 0.566049   1
86.580062   223.819103  0.616347  4316.445486  0.862637 0.570249   1
87.059730   219.826635  2.184984  4273.541685  0.875318 0.580956   1
87.539398   216.469101  2.551231  4160.477999  0.895289 0.595819   1
88.019066   217.599857  4.190726  4250.705875  0.892067 0.592868   1
88.498734   218.203062  5.090296  4452.307402  0.877956 0.582760   1
88.978402   217.213231  4.039200  4549.723854  0.875177 0.580452   1
89.458069   213.930464  3.522692  4524.307096  0.885582 0.588553   1
89.937737   211.934988  3.971734  4561.871072  0.889537 0.591919   1
90.417405   207.811602  2.932552  4432.422142  0.911156 0.607971   1
90.897073   204.452924  1.882716  4230.467087  0.941336 0.629348   1
91.376741   198.226595  -0.364574  4058.419261  0.971904 0.652906   1
91.856409   194.556716  -1.037761  3830.992504  1.010331 0.680663   1
92.336077   190.152056  -0.257433  3700.898328  1.039397 0.703586   1
92.815745   189.704276  0.904988  3595.528155  1.062620 0.719393   1
93.295413   186.354087  0.608423  3468.458836  1.092838 0.742043   1
93.775081   184.917739  1.177778  3451.533038  1.104754 0.750958   1
94.254749   181.969861  -0.349018  3414.909059  1.121308 0.763584   1
94.734417   178.855358  -0.911461  3263.488928  1.158730 0.791189   1
95.214085   175.825419  0.292057  3137.190151  1.194467 0.818639   1
95.693753   172.662919  0.202842  2990.467821  1.236542 0.850216   1
96.173421   168.514969  -1.125245  2808.428077  1.291371 0.891449   1
96.653088   164.456113  -0.647224  2637.569809  1.349618 0.936421   1
97.132756   160.620245  -0.522351  2515.529904  1.399640 0.975721   1
97.612424   160.234704  -1.505696  2394.723786  1.444151 1.005826   1
98.092092   155.060247  -1.331411  2238.295265  1.517440 1.064240   1
98.571760   151.900799  -0.056208  2011.764349  1.621262 1.142516   1
99.051428   152.490239  -1.227278  1854.309860  1.696395 1.192676   1
99.531096   150.439926  0.072445  1715.462846  1.782445 1.257306   1
100.010764   148.815221  -1.296477  1586.917897  1.870085 1.320534   1
100.490432   145.696410  0.798899  1483.238826  1.960510 1.392211   1
100.970100   145.184823  -2.291708  1318.730019  2.092249 1.483437   1
101.449768   144.469787  -0.572744  1150.909883  2.257589 1.603529   1
101.929436   147.368073  0.908687  963.587373  2.465881 1.744801   1
102.409104   147.289117  -1.928793  782.964637  2.750361 1.942825   1
102.888772   143.222110  2.141114  643.660270  3.084595 2.199026   1
103.368440   144.418693  -2.029168  532.725380  3.397446 2.411439   1
103.848107   144.394817  -0.515272  414.997168  3.876449 2.755670   1
104.327775   149.287139  -1.651144  280.387139  4.698953 3.317342   1
104.807443   159.102120  -7.109019  164.196961  6.077210 4.227845   1
105.287111   183.993042  -14.110020  88.452512  8.095049 5.452238   1
105.766779   193.072617  -11.421293  57.382253  10.136694 6.798747   1
106.246447   193.871225  3.424694  43.687125  11.844677 8.056219   1
106.726115   199.270430  -17.234288  31.293630  14.141612 9.519322   1
107.205783   232.041104  -10.725471  25.207210  15.709655 10.275340   1
107.685451   240.683243  29.692371  19.697218  18.299544 12.402499   1
108.165119   234.176698  -6.761646  15.664210  20.941269 13.950798   1
108.644787   240.381157  -30.069499  11.161723  25.619514 17.010367   1
109.124455   257.287537  -24.438318  10.031873  27.408049 18.021693   1
109.604123   272.164332  31.172015  9.023087  29.841147 20.425422   1
110.083791   326.015191  -12.071720  8.299809  31.091487 19.635978   1
110.563459   334.791409  50.060254  7.073966  35.363444 23.743819   1
111.043126   227.859992  27.566039  6.992758  36.885784 26.958856   1
111.522794   325.278145  67.779768  6.806594  36.916469 25.755924   1
112.002462   308.988551  -13.745168  6.182119  38.767780 25.196702   1
112.482130   233.327960  23.031549  5.203637  46.034936 33.864842   1
112.961798   200.000000  0.000000  6.134862  39.926337 24.397098   0
113.441466   299.474923  26.736575  6.006585  40.815839 27.849923   1
113.921134   278.593589  35.836012  4.886367  47.951680 34.318168   1
114.400802   267.037590  -102.557437  5.932464  40.090230 26.496957   1
114.880470   254.960462  -50.160020  4.768114  48.370585 33.075666   1
115.360138   229.891075  -137.621627  4.845092  46.384562 32.904555   1
115.839806   305.461316  37.951125  4.040582  56.236622 39.837345   1
116.319474   359.499913  33.919574  4.705903  50.373832 33.582476   1
116.799142   194.099285  -77.944517  2.509843  85.017944 67.178607   1
117.278810   418.945593  -106.479709  3.941590  56.692068 33.985104   1
117.758478   301.667487  109.306363  4.042383  58.868383 49.003937   1
118.238145   200.000000  0.000000  3.926406  58.900911 39.306685   0
118.717813   472.071058  102.493949  3.787721  63.884400 43.521884   1
119.197481   437.432886  -124.414332  3.300882  66.676029 39.786904   1
119.677149   200.000000  0.000000  3.712633  62.414895 38.091843   0
120.156817   189.740921  -42.282674  3.034164  80.030401 61.814156   1
120.636485   258.560019  -51.581140  2.748764  79.567753 56.110741   1
121.116153   200.000000  0.000000  2.972308  86.170288 51.560265   999
121.595821   233.209915  35.344289  2.818324  83.958750 66.429451   1
122.075489   200.000000  0.000000  2.744035  86.972521 100.185288   0
122.555157   200.000000  0.000000  2.956340  86.392841 43.804434   999
123.034825   223.099326  21.555560  2.513103  95.086653 74.647113   1
123.514493   200.000000  0.000000  1.346707  -999.000000 -999.000000   -1
123.994161   200.000000  0.000000  1.674410  -999.000000 -999.000000   -1
124.473829   382.236849  82.384128  2.464360  94.682694 69.647202   1
124.953496   215.271500  -125.026158  2.427523  91.006422 70.795559   1
125.433164   200.000000  0.000000  1.784608  131.411638 60.987889   999
125.912832   200.000000  0.000000  1.996404  105.996479 127.773976   0
126.392500   200.000000  0.000000  1.070706  -999.000000 -999.000000   -1
126.872168   200.000000  0.000000  1.691166  289.039670 55.698191   999
127.351836   200.000000  0.000000  0.154651  -999.000000 -999.000000   -1
127.831504   409.343882  -16.084841  0.898536  232.610699 155.070255   1
128.311172   126.378995  132.550672  1.096012  248.868965 768.169239   1
128.790840   200.000000  0.000000  0.344011  -999.000000 -999.000000   -1
129.270508   200.000000  0.000000  0.534205  519.780695 371.737072   999
129.750176   200.000000  0.000000  0.853408  382.595567 159.401026   999
