116   2013  11  27  6.978603  90.000000  0.000000  1686.000000
Altitude(km) Temperature(K)  Wind(m/s)   NaDensity(cm^-3)    TempErr(K)  WindErr(m/s)    RealValue
74.588364   253.697903  38.433485  0.277982  86.323681 38.364392   1
75.068031   200.000000  0.000000  0.287999  70.500446 37.433240   999
75.547699   308.406876  -136.661909  0.349982  75.881019 38.965452   1
76.027367   200.000000  0.000000  -0.387064  -999.000000 -999.000000   -1
76.507035   200.000000  0.000000  0.083014  -999.000000 -999.000000   -1
76.986703   200.000000  0.000000  0.107157  -999.000000 -999.000000   -1
77.466371   200.000000  0.000000  0.080019  -999.000000 -999.000000   -1
77.946039   200.000000  0.000000  0.106648  -999.000000 -999.000000   -1
78.425707   200.000000  0.000000  0.085991  -999.000000 -999.000000   -1
78.905375   200.000000  0.000000  -0.164295  -999.000000 -999.000000   -1
79.385043   200.000000  0.000000  -0.431383  -999.000000 -999.000000   -1
79.864711   200.000000  0.000000  0.013783  -999.000000 -999.000000   -1
80.344379   200.000000  0.000000  0.033365  -999.000000 -999.000000   -1
80.824047   200.000000  0.000000  0.340192  144.101551 49.252628   999
81.303715   115.472748  112.629579  1.469355  68.742056 62.862806   1
81.783383   191.059859  4.458861  122.103225  4.950506 3.382709   1
82.263050   198.556894  -2.463484  387.304720  2.763930 1.860561   1
82.742718   195.121240  0.658899  612.959310  2.216955 1.500580   1
83.222386   192.867709  1.977782  790.416714  1.968324 1.336638   1
83.702054   191.976821  0.605870  1037.442856  1.729264 1.174253   1
84.181722   196.261589  0.861103  1246.845824  1.581538 1.068054   1
84.661390   189.489656  2.407181  1281.340705  1.579910 1.076532   1
85.141058   189.723981  1.362048  1454.595223  1.491505 1.014919   1
85.620726   192.385784  -0.085180  1696.009314  1.386228 0.938900   1
86.100394   191.822877  -0.240579  1930.861776  1.308157 0.886078   1
86.580062   193.132880  -1.209476  2013.065916  1.287778 0.869866   1
87.059730   187.302430  -0.871148  1995.623023  1.309003 0.890322   1
87.539398   183.877584  -2.158229  1939.519549  1.340718 0.914711   1
88.019066   180.885728  -0.251054  1939.465050  1.354484 0.928133   1
88.498734   179.066183  -2.697354  1937.803549  1.365813 0.936309   1
88.978402   176.962820  -1.180072  2067.977907  1.334460 0.917550   1
89.458069   177.004858  -1.855132  2333.168261  1.264119 0.868190   1
89.937737   178.142717  -2.984141  2490.474425  1.229503 0.841955   1
90.417405   178.796995  0.414792  2654.789794  1.198799 0.821061   1
90.897073   177.274258  0.642915  2646.414439  1.210940 0.830453   1
91.376741   174.384201  1.117454  2521.685763  1.253414 0.862450   1
91.856409   172.193438  4.624402  2520.148722  1.266652 0.875399   1
92.336077   178.680408  4.018056  2847.144016  1.189515 0.813788   1
92.815745   184.808625  1.991775  3245.150327  1.113460 0.753939   1
93.295413   190.675546  2.055263  3409.006797  1.087505 0.730137   1
93.775081   197.019684  2.127251  3394.286378  1.091360 0.726274   1
94.254749   193.445314  3.437859  3226.013459  1.130677 0.755573   1
94.734417   193.152026  3.216477  3011.723617  1.178241 0.786768   1
95.214085   190.985631  3.324012  2843.627137  1.222861 0.818079   1
95.693753   186.805939  2.694242  2661.913588  1.276917 0.857706   1
96.173421   184.865244  0.655608  2459.821121  1.338763 0.899663   1
96.653088   181.727506  0.244769  2274.510786  1.405486 0.947425   1
97.132756   180.100930  0.473448  2123.923264  1.466152 0.989863   1
97.612424   178.040117  2.447161  1969.346848  1.536245 1.040574   1
98.092092   176.591554  1.269866  1675.548520  1.678030 1.137345   1
98.571760   185.120086  -0.922206  1177.772009  1.993349 1.333719   1
99.051428   188.870259  -1.173342  823.131990  2.389570 1.590752   1
99.531096   185.347548  1.678353  668.060309  2.678652 1.794077   1
100.010764   178.833465  -3.749383  584.888405  2.895286 1.949890   1
100.490432   184.412784  -0.142459  526.956460  3.050697 2.043352   1
100.970100   180.467085  0.579224  488.507714  3.199722 2.155101   1
101.449768   177.862653  -1.044217  419.592890  3.480872 2.350695   1
101.929436   177.346748  0.862667  339.119010  3.898733 2.638387   1
102.409104   182.819910  5.157862  238.682992  4.653057 3.137021   1
102.888772   194.935681  -6.842286  140.709730  6.022608 3.978750   1
103.368440   199.116615  1.162567  93.735349  7.437244 4.921037   1
103.848107   190.695804  6.126672  76.310620  8.381400 5.632593   1
104.327775   194.051686  8.816084  64.943679  9.132481 6.133291   1
104.807443   196.050045  2.365791  55.886485  9.891386 6.608021   1
105.287111   175.810677  12.555366  43.467180  11.640571 8.086005   1
105.766779   189.496766  -13.980350  33.800697  13.058030 8.791408   1
106.246447   212.460319  -3.794209  28.475379  14.147881 9.333913   1
106.726115   181.374773  -17.533963  22.220879  16.733975 11.490400   1
107.205783   187.777079  -18.549823  19.397012  17.990080 12.286054   1
107.685451   196.765469  3.569531  18.159002  18.711632 12.801930   1
108.165119   175.873724  31.443914  14.747722  21.925245 16.154621   1
108.644787   182.659057  35.051999  11.436993  25.371790 18.839018   1
109.124455   231.398138  -28.198256  10.494400  25.128936 16.549517   1
109.604123   183.687330  -8.787069  9.136586  29.124833 20.680742   1
110.083791   215.855856  -67.780188  6.317565  34.450830 23.677007   1
110.563459   217.538475  -44.233899  6.946537  32.992029 22.478305   1
111.043126   223.860315  -28.216172  5.765935  37.509853 25.657849   1
111.522794   262.165260  -31.092269  5.672638  37.275761 24.435376   1
112.002462   200.000000  0.000000  3.063990  54.646396 35.401503   0
112.482130   246.268707  33.736600  3.106488  58.795376 43.042852   1
112.961798   223.901960  -123.229338  3.010310  56.770909 40.857719   1
113.441466   269.830751  160.089548  1.979582  84.548653 91.902684   1
113.921134   383.989732  -79.976768  1.973368  79.586207 49.252628   1
114.400802   202.149401  -61.096836  1.935928  86.685847 65.691437   1
114.880470   200.000000  0.000000  1.624300  95.621845 58.159553   999
115.360138   200.000000  0.000000  2.009690  82.708102 55.450333   0
115.839806   200.000000  0.000000  1.618528  97.768657 62.926833   0
116.319474   200.000000  0.000000  1.519434  145.515976 360.531519   0
116.799142   154.015897  -26.369931  1.150238  167.838888 138.428969   1
117.278810   200.000000  0.000000  0.765362  -999.000000 -999.000000   -1
117.758478   293.964206  -47.990359  1.498407  105.131818 71.552436   1
118.238145   200.000000  0.000000  1.047221  -999.000000 -999.000000   -1
118.717813   200.000000  0.000000  0.602885  219.629368 2025.107663   999
119.197481   200.000000  0.000000  0.941633  143.576130 358.812878   999
119.677149   200.000000  0.000000  0.027437  -999.000000 -999.000000   -1
120.156817   200.000000  0.000000  0.684332  -999.000000 -999.000000   -1
120.636485   200.000000  0.000000  0.463891  282.423658 360.940230   999
121.116153   106.103268  65.433352  1.106173  255.746118 373.764594   1
121.595821   200.000000  0.000000  0.940904  235.564643 114.357618   999
122.075489   200.000000  0.000000  0.440759  312.955609 224.645096   0
122.555157   200.000000  0.000000  0.348376  -999.000000 -999.000000   -1
123.034825   200.000000  0.000000  -0.077888  -999.000000 -999.000000   -1
123.514493   200.000000  0.000000  -0.123725  -999.000000 -999.000000   -1
123.994161   200.000000  0.000000  0.593874  -999.000000 -999.000000   -1
124.473829   277.406623  -71.449070  1.403114  121.038493 84.247261   1
124.953496   200.000000  0.000000  0.453108  -999.000000 -999.000000   -1
125.433164   200.000000  0.000000  0.519578  -999.000000 -999.000000   -1
125.912832   200.000000  0.000000  0.313235  -999.000000 -999.000000   -1
126.392500   200.000000  0.000000  0.318489  1045.039202 2135.136033   0
126.872168   200.000000  0.000000  -0.057365  -999.000000 -999.000000   -1
127.351836   155.363947  -73.668221  0.811814  246.438261 225.160804   1
127.831504   383.742211  23.902163  1.289936  140.023559 94.758528   1
128.311172   200.000000  0.000000  1.135937  -999.000000 -999.000000   -1
128.790840   200.000000  0.000000  0.129305  -999.000000 -999.000000   -1
129.270508   200.000000  0.000000  0.720414  303.272543 2255.275403   999
129.750176   200.000000  0.000000  0.236162  -999.000000 -999.000000   -1
