116   2013  11  27  6.895028  90.000000  0.000000  1686.000000
Altitude(km) Temperature(K)  Wind(m/s)   NaDensity(cm^-3)    TempErr(K)  WindErr(m/s)    RealValue
74.588364   200.000000  0.000000  -0.068319  -999.000000 -999.000000   -1
75.068031   200.000000  0.000000  0.186022  -999.000000 -999.000000   -1
75.547699   200.000000  0.000000  0.371230  70.384872 39.773499   999
76.027367   200.000000  0.000000  -0.011525  -999.000000 -999.000000   -1
76.507035   200.000000  0.000000  -0.217559  -999.000000 -999.000000   -1
76.986703   200.000000  0.000000  0.039221  -999.000000 -999.000000   -1
77.466371   200.000000  0.000000  -0.229359  -999.000000 -999.000000   -1
77.946039   200.000000  0.000000  -0.017808  -999.000000 -999.000000   -1
78.425707   200.000000  0.000000  0.137045  118.468715 64.070927   999
78.905375   200.000000  0.000000  0.274782  104.586848 55.788547   0
79.385043   200.000000  0.000000  0.119774  -999.000000 -999.000000   -1
79.864711   200.000000  0.000000  0.013860  -999.000000 -999.000000   -1
80.344379   200.000000  0.000000  0.184426  134.266406 69.722756   999
80.824047   200.000000  0.000000  0.420012  -999.000000 -999.000000   -1
81.303715   190.549924  -2.918019  43.375872  8.295453 5.679714   1
81.783383   197.528889  -4.965672  289.419375  3.170408 2.140063   1
82.263050   198.814121  0.479322  559.645806  2.292351 1.548690   1
82.742718   197.590438  1.689654  767.039486  1.972095 1.334843   1
83.222386   191.995979  -0.693733  967.333430  1.774090 1.207059   1
83.702054   196.060192  -0.378047  1213.176269  1.588620 1.075286   1
84.181722   193.707889  2.289127  1303.415105  1.546407 1.050973   1
84.661390   191.807462  0.827119  1391.846159  1.508012 1.025986   1
85.141058   191.777850  1.862788  1541.018759  1.442693 0.981742   1
85.620726   192.303318  -0.137217  1651.850597  1.401092 0.951235   1
86.100394   190.732260  1.350919  1780.113734  1.360760 0.925982   1
86.580062   187.790420  2.528333  1818.159908  1.359314 0.928590   1
87.059730   184.700457  -2.157648  1810.331802  1.373779 0.939122   1
87.539398   182.025969  1.268295  1784.673849  1.397725 0.960147   1
88.019066   179.088994  1.165568  1762.824508  1.420073 0.978678   1
88.498734   174.187753  1.644318  1735.517476  1.449209 1.005111   1
88.978402   171.573537  -0.419284  1681.062313  1.486280 1.032676   1
89.458069   172.120128  -2.551721  1934.566893  1.392312 0.964921   1
89.937737   174.845539  0.147702  2322.918755  1.274958 0.880998   1
90.417405   176.707789  -1.907520  2563.910530  1.217980 0.837856   1
90.897073   175.114380  -0.967623  2614.506744  1.216808 0.838572   1
91.376741   174.026281  -1.968294  2562.961906  1.238524 0.853584   1
91.856409   174.063586  0.111269  2566.671282  1.246353 0.859194   1
92.336077   180.923321  -0.104524  3037.604685  1.143549 0.780284   1
92.815745   189.718561  -0.706829  3430.582150  1.073392 0.723174   1
93.295413   192.434589  -0.002469  3493.143276  1.068550 0.716986   1
93.775081   191.339878  -1.182301  3483.520419  1.078050 0.723092   1
94.254749   193.338348  0.504000  3368.273831  1.102304 0.737434   1
94.734417   197.097196  1.541077  2968.656338  1.178691 0.784598   1
95.214085   193.877973  0.396366  2765.885968  1.232001 0.822048   1
95.693753   187.620783  1.366061  2608.233477  1.284393 0.863522   1
96.173421   184.903676  2.128513  2454.091340  1.336357 0.901282   1
96.653088   185.097747  -0.076123  2254.063757  1.402089 0.943430   1
97.132756   182.987974  -0.315502  2045.959393  1.483905 1.000392   1
97.612424   180.535534  2.461206  1901.061186  1.553910 1.052032   1
98.092092   177.268279  0.082924  1715.695025  1.650815 1.120276   1
98.571760   181.276681  -1.920096  1260.311311  1.927781 1.299244   1
99.051428   187.985128  -2.939670  801.708565  2.414277 1.611982   1
99.531096   190.549204  -0.000970  637.071885  2.719182 1.812523   1
100.010764   187.436779  -0.956476  565.483240  2.909848 1.946114   1
100.490432   183.444900  1.086732  522.989579  3.055961 2.056673   1
100.970100   182.612062  -2.394753  472.564345  3.232285 2.173391   1
101.449768   176.361228  -0.467242  426.898246  3.445828 2.338910   1
101.929436   176.848074  -3.222017  373.824062  3.697645 2.504659   1
102.409104   176.664425  -0.919534  312.970521  4.067619 2.760105   1
102.888772   172.672965  -1.639398  234.053985  4.757754 3.247013   1
103.368440   184.283944  -7.571910  147.434166  5.949568 3.991949   1
103.848107   183.305363  7.276977  91.258911  7.677801 5.218877   1
104.327775   193.980592  -13.643225  62.502266  9.227369 6.134550   1
104.807443   205.220087  14.811649  51.185265  10.267611 6.867371   1
105.287111   212.708744  -10.988379  43.552561  11.101851 7.254681   1
105.766779   193.838944  -20.353831  37.753773  12.176907 8.131345   1
106.246447   182.764167  -18.162171  27.822619  14.614902 9.969577   1
106.726115   171.108860  -7.480992  22.776949  16.763048 11.731571   1
107.205783   203.332548  12.285359  18.564369  18.218018 12.452592   1
107.685451   209.844550  11.251284  15.959070  19.827226 13.495041   1
108.165119   203.261235  -15.800466  13.836118  21.588610 14.620846   1
108.644787   261.801172  -0.054373  11.887882  23.025653 14.840463   1
109.124455   229.463679  -60.336465  9.042283  26.997372 17.820680   1
109.604123   218.611263  -30.975971  9.150190  27.486547 18.465840   1
110.083791   291.337345  31.115503  6.789150  32.848061 21.702109   1
110.563459   222.062198  23.298690  6.385325  35.350980 25.065988   1
111.043126   213.790772  -50.662893  5.218101  39.683477 27.542475   1
111.522794   268.696981  -45.694182  4.974343  40.060876 26.091091   1
112.002462   242.899045  33.798339  4.243689  46.594074 33.533577   1
112.482130   214.284018  -62.530595  3.542528  52.275146 37.177256   1
112.961798   215.822702  159.077609  3.439101  55.431136 71.210605   1
113.441466   200.000000  0.000000  2.704035  59.578662 47.367651   0
113.921134   167.181627  133.027945  2.437323  75.815501 121.035984   1
114.400802   200.000000  0.000000  1.642830  86.966889 103.462243   0
114.880470   334.938604  -21.666082  1.741846  89.072941 58.540440   1
115.360138   200.000000  0.000000  1.774094  87.235296 50.432929   0
115.839806   137.514026  -34.246255  1.757731  122.441394 102.968332   1
116.319474   200.000000  0.000000  0.867037  196.422241 92.271196   999
116.799142   200.000000  0.000000  2.260977  75.424864 48.015614   0
117.278810   155.924569  13.165303  0.789498  239.560171 203.443358   1
117.758478   200.000000  0.000000  -0.028900  -999.000000 -999.000000   -1
118.238145   200.000000  0.000000  1.461609  112.510951 162.331093   0
118.717813   200.000000  0.000000  0.897018  220.076607 74.698667   999
119.197481   200.000000  0.000000  1.157654  255.900829 250.921398   999
119.677149   200.000000  0.000000  1.284438  151.299940 59.377086   999
120.156817   200.000000  0.000000  0.426255  -999.000000 -999.000000   -1
120.636485   483.702891  -75.203050  1.082238  144.302511 87.315271   1
121.116153   200.000000  0.000000  0.763682  -999.000000 -999.000000   -1
121.595821   200.000000  0.000000  -0.007663  -999.000000 -999.000000   -1
122.075489   200.000000  0.000000  0.571348  466.458919 255.595623   999
122.555157   200.000000  0.000000  0.277169  832.274188 279.840284   999
123.034825   200.000000  0.000000  0.912788  184.455769 97.356452   999
123.514493   200.000000  0.000000  -0.424566  -999.000000 -999.000000   -1
123.994161   200.000000  0.000000  0.522558  802.426408 171.473172   999
124.473829   200.000000  0.000000  0.535669  261.264094 298.990042   999
124.953496   200.000000  0.000000  0.843378  326.316752 90.912148   999
125.433164   200.000000  0.000000  1.540062  129.334485 54.887151   999
125.912832   200.000000  0.000000  -0.206077  -999.000000 -999.000000   -1
126.392500   200.000000  0.000000  0.339082  -999.000000 -999.000000   -1
126.872168   200.000000  0.000000  0.532726  -999.000000 -999.000000   -1
127.351836   200.000000  0.000000  -0.240532  -999.000000 -999.000000   -1
127.831504   200.000000  0.000000  0.373955  -999.000000 -999.000000   -1
128.311172   179.741208  97.007789  0.934457  212.394396 262.837214   1
128.790840   200.000000  0.000000  -0.027382  -999.000000 -999.000000   -1
129.270508   200.000000  0.000000  0.619429  249.329750 193.067087   0
129.750176   200.000000  0.000000  0.255102  -999.000000 -999.000000   -1
