116   2013  11  27  12.536142  90.000000  0.000000  1686.000000
Altitude(km) Temperature(K)  Wind(m/s)   NaDensity(cm^-3)    TempErr(K)  WindErr(m/s)    RealValue
74.588364   200.000000  0.000000  -0.010965  -999.000000 -999.000000   -1
75.068031   200.000000  0.000000  -0.158836  -999.000000 -999.000000   -1
75.547699   200.000000  0.000000  0.013472  -999.000000 -999.000000   -1
76.027367   200.000000  0.000000  0.210649  -999.000000 -999.000000   -1
76.507035   200.000000  0.000000  0.164684  -999.000000 -999.000000   -1
76.986703   200.000000  0.000000  -0.181438  -999.000000 -999.000000   -1
77.466371   200.000000  0.000000  -0.100723  -999.000000 -999.000000   -1
77.946039   200.000000  0.000000  -0.008392  -999.000000 -999.000000   -1
78.425707   200.000000  0.000000  0.026826  144.531062 86.814071   999
78.905375   200.000000  0.000000  0.241339  -999.000000 -999.000000   -1
79.385043   233.525603  -21.761381  14.622318  14.259851 9.410052   1
79.864711   233.155485  1.007106  163.388088  4.138912 2.720374   1
80.344379   224.114156  -0.767097  306.360625  3.044416 2.015262   1
80.824047   226.936316  0.092091  388.290470  2.717036 1.793622   1
81.303715   220.733520  1.249403  477.380086  2.472145 1.643240   1
81.783383   217.702034  2.748994  688.005599  2.074766 1.384294   1
82.263050   215.276798  3.748738  952.754758  1.776202 1.188530   1
82.742718   211.166271  0.285179  1159.875532  1.622261 1.087811   1
83.222386   214.144241  2.758232  1565.673041  1.403429 0.938955   1
83.702054   212.605341  1.741436  1816.564887  1.312184 0.878446   1
84.181722   210.131085  0.668938  1958.361866  1.273649 0.854017   1
84.661390   211.295988  0.861876  2181.978583  1.213840 0.812475   1
85.141058   209.609999  0.963590  2380.090010  1.171201 0.784976   1
85.620726   208.028647  -0.385817  2378.302638  1.180372 0.791383   1
86.100394   212.336248  -0.410467  2896.805082  1.073921 0.716008   1
86.580062   215.145655  -0.140660  3423.823124  0.993152 0.659660   1
87.059730   211.394969  0.389046  3409.220055  1.004570 0.669597   1
87.539398   204.313235  1.733940  3268.026639  1.038252 0.697563   1
88.019066   202.034609  1.484712  3140.343371  1.068235 0.718840   1
88.498734   197.382782  -0.232555  2956.139796  1.112113 0.751069   1
88.978402   194.097693  -0.150408  2783.327373  1.157123 0.783953   1
89.458069   191.631279  3.207727  2721.557401  1.181555 0.803958   1
89.937737   189.247395  2.629676  2602.986673  1.218791 0.830782   1
90.417405   183.108008  2.192066  2491.586627  1.261649 0.865868   1
90.897073   178.672726  0.513148  2401.548902  1.299479 0.895404   1
91.376741   176.272455  1.401796  2356.109358  1.324613 0.915464   1
91.856409   172.520645  -0.477491  2294.187766  1.356978 0.940808   1
92.336077   170.176450  -0.128508  2194.087592  1.401152 0.974057   1
92.815745   167.373406  1.630738  2127.780154  1.438316 1.004218   1
93.295413   163.296113  -0.592036  2083.602120  1.471156 1.030934   1
93.775081   159.469351  2.011016  2030.121292  1.510452 1.065403   1
94.254749   156.432756  -0.061426  2023.242981  1.530073 1.081842   1
94.734417   153.212746  1.577557  2019.777402  1.551136 1.102418   1
95.214085   150.707411  1.668216  1986.506403  1.581924 1.127826   1
95.693753   151.374775  1.863358  2055.704295  1.562456 1.112080   1
96.173421   150.419732  -0.752096  2043.485717  1.578928 1.122646   1
96.653088   146.927832  0.623929  1974.285222  1.629309 1.164875   1
97.132756   147.067095  -0.252981  2012.469794  1.622674 1.158306   1
97.612424   147.643088  -0.741440  1867.714380  1.692319 1.205659   1
98.092092   158.424484  0.068549  1588.650379  1.806918 1.266226   1
98.571760   189.842665  4.766062  992.720140  2.209568 1.487366   1
99.051428   194.669579  -4.013316  770.326875  2.507087 1.668544   1
99.531096   192.029781  -5.412227  695.301990  2.658593 1.773665   1
100.010764   190.323920  1.619684  649.054929  2.775838 1.863160   1
100.490432   187.439279  -0.832798  587.298960  2.940545 1.977905   1
100.970100   179.490231  -1.006994  547.998615  3.086738 2.097567   1
101.449768   178.035447  -0.942909  515.567731  3.204955 2.182124   1
101.929436   173.302229  2.738122  455.130669  3.454045 2.372803   1
102.409104   172.650398  -0.970742  405.577678  3.679325 2.524171   1
102.888772   179.703370  3.292873  363.061394  3.879794 2.644044   1
103.368440   171.972776  0.459790  305.083598  4.297382 2.955524   1
103.848107   179.184853  1.721403  228.848847  4.952305 3.378883   1
104.327775   194.126946  -1.816434  157.510147  5.922684 3.962386   1
104.807443   205.431366  -1.714575  120.333320  6.771589 4.477418   1
105.287111   208.512478  -1.768940  91.413242  7.825932 5.168476   1
105.766779   205.424984  -8.297100  76.735481  8.618404 5.702413   1
106.246447   213.992288  14.654651  65.482047  9.408179 6.275610   1
106.726115   201.425636  7.763875  57.738534  10.183543 6.871174   1
107.205783   210.177983  11.228019  45.893518  11.498624 7.731344   1
107.685451   216.138218  14.968457  40.344129  12.346905 8.294614   1
108.165119   219.316660  0.481748  32.483897  13.891235 9.236128   1
108.644787   240.464276  -12.048406  28.424496  14.816928 9.589362   1
109.124455   205.655168  6.467190  25.353078  16.311829 11.158520   1
109.604123   255.962344  8.709458  22.560487  17.035948 11.088317   1
110.083791   268.547612  8.914337  21.173794  17.695429 11.410468   1
110.563459   252.933250  32.620499  19.503107  18.824838 12.658140   1
111.043126   256.176079  -13.267554  15.592098  21.296044 13.831406   1
111.522794   266.411705  -50.653688  15.729836  21.003601 13.295525   1
112.002462   289.656813  36.870628  15.237260  21.936367 14.447451   1
112.482130   241.354534  22.745338  10.746281  27.610373 19.141574   1
112.961798   228.267793  -21.491970  10.396934  28.197543 19.118111   1
113.441466   434.927840  70.226302  10.415650  28.698655 17.943629   1
113.921134   387.579951  30.632770  9.741519  29.508418 18.371411   1
114.400802   314.981680  25.131328  8.427723  32.345344 21.230279   1
114.880470   355.786759  -50.183766  8.691157  31.331181 19.007097   1
115.360138   255.140737  -36.533115  8.206767  33.066192 21.914161   1
115.839806   296.410898  -29.666501  7.311587  35.600478 22.918819   1
116.319474   210.107114  -34.403477  6.392913  41.007045 29.095053   1
116.799142   328.864454  -22.203503  7.453281  35.564664 22.434195   1
117.278810   219.229479  51.557998  5.759680  45.465201 36.031913   1
117.758478   356.924358  27.613731  6.454752  40.212554 26.089250   1
118.238145   340.850773  67.668066  6.068035  42.670715 29.620743   1
118.717813   200.000000  0.000000  5.905671  42.847612 25.236536   0
119.197481   236.952046  -57.011147  5.101968  47.992011 33.246878   1
119.677149   235.232039  -22.648652  5.429777  47.053648 32.879668   1
120.156817   200.000000  0.000000  5.119154  48.789563 28.778805   0
120.636485   360.829689  45.943980  4.583233  53.318980 36.020405   1
121.116153   188.313530  -145.667313  4.183506  54.913153 43.370269   1
121.595821   276.279131  -0.159823  4.325235  56.026587 38.725153   1
122.075489   242.927839  26.633914  3.516062  67.992881 51.120944   1
122.555157   235.729905  51.771777  3.541619  68.853988 55.352590   1
123.034825   200.000000  0.000000  2.858249  76.701231 42.196664   0
123.514493   200.000000  0.000000  4.070609  60.986406 47.693471   0
123.994161   200.000000  0.000000  2.711146  84.084357 42.337099   999
124.473829   230.376560  106.458690  2.551867  92.351961 95.080046   1
124.953496   200.000000  0.000000  1.816325  -999.000000 -999.000000   -1
125.433164   245.668269  48.379963  0.862518  238.921653 201.482954   1
125.912832   172.565270  103.574472  1.866045  132.982951 179.913439   1
126.392500   200.000000  0.000000  0.571166  -999.000000 -999.000000   -1
126.872168   200.000000  0.000000  2.539101  108.149777 56.421011   999
127.351836   200.000000  0.000000  1.219631  153.872171 174.095099   999
127.831504   200.000000  0.000000  0.791385  -999.000000 -999.000000   -1
128.311172   200.000000  0.000000  0.707118  -999.000000 -999.000000   -1
128.790840   200.000000  0.000000  1.165265  -999.000000 -999.000000   -1
129.270508   345.801149  95.898124  1.844425  125.106902 100.052709   1
129.750176   200.000000  0.000000  1.433179  148.529510 90.573755   0
