116   2013  11  27  11.193714  90.000000  0.000000  1686.000000
Altitude(km) Temperature(K)  Wind(m/s)   NaDensity(cm^-3)    TempErr(K)  WindErr(m/s)    RealValue
74.588364   200.000000  0.000000  -0.284829  -999.000000 -999.000000   -1
75.068031   200.000000  0.000000  -0.007365  -999.000000 -999.000000   -1
75.547699   200.000000  0.000000  -0.185983  -999.000000 -999.000000   -1
76.027367   200.000000  0.000000  -0.151920  -999.000000 -999.000000   -1
76.507035   200.000000  0.000000  -0.161143  -999.000000 -999.000000   -1
76.986703   200.000000  0.000000  -0.070106  -999.000000 -999.000000   -1
77.466371   200.000000  0.000000  -0.078782  -999.000000 -999.000000   -1
77.946039   200.000000  0.000000  -0.006191  -999.000000 -999.000000   -1
78.425707   200.000000  0.000000  0.010024  -999.000000 -999.000000   -1
78.905375   200.000000  0.000000  -0.094145  -999.000000 -999.000000   -1
79.385043   200.000000  0.000000  0.022511  -999.000000 -999.000000   -1
79.864711   200.000000  0.000000  0.033499  -999.000000 -999.000000   -1
80.344379   398.153055  -87.327541  0.671590  87.003947 51.377391   1
80.824047   216.260159  -2.335779  197.923657  3.731601 2.511476   1
81.303715   214.855990  -1.054204  749.909584  1.924735 1.295993   1
81.783383   222.671504  -0.717774  1617.408303  1.313191 0.876512   1
82.263050   226.533802  0.177713  2470.690815  1.067879 0.709896   1
82.742718   226.804230  1.651716  2700.142121  1.028846 0.683881   1
83.222386   225.339762  0.644325  2674.450164  1.041463 0.692437   1
83.702054   219.465203  2.357430  2638.282302  1.059117 0.708760   1
84.181722   216.749122  0.600169  2530.601858  1.090013 0.730320   1
84.661390   212.583211  0.013888  2472.054762  1.112804 0.748250   1
85.141058   209.378213  0.288858  2642.777632  1.085707 0.732260   1
85.620726   210.406210  -0.702468  2905.040408  1.041771 0.700881   1
86.100394   211.131110  2.713368  3017.150388  1.029727 0.693026   1
86.580062   207.294427  1.000030  3002.738204  1.041434 0.702650   1
87.059730   202.548066  1.267205  2969.249005  1.058009 0.717274   1
87.539398   201.521228  4.285456  2913.606061  1.077002 0.731766   1
88.019066   199.480349  0.853647  2938.116774  1.080657 0.733853   1
88.498734   199.972881  1.316648  3176.687479  1.046118 0.709544   1
88.978402   203.361317  2.238853  3658.448059  0.979344 0.661325   1
89.458069   203.787946  0.145470  3875.890428  0.957474 0.644740   1
89.937737   199.622471  0.671138  3846.199850  0.971072 0.656579   1
90.417405   198.819466  1.963004  3685.895364  0.999973 0.676526   1
90.897073   192.249585  0.885458  3501.743327  1.038506 0.707025   1
91.376741   189.875202  0.792389  3405.347236  1.062698 0.724827   1
91.856409   187.670226  1.436881  3405.704332  1.072375 0.732979   1
92.336077   185.305949  0.848981  3354.428466  1.090391 0.746487   1
92.815745   181.247776  -0.779407  3250.866385  1.119596 0.768984   1
93.295413   180.768603  0.975702  3266.932461  1.125490 0.773505   1
93.775081   179.895802  0.563567  3261.055944  1.135126 0.779999   1
94.254749   178.529183  3.416499  3216.746633  1.153214 0.794452   1
94.734417   173.627161  2.302768  3021.270415  1.204934 0.834141   1
95.214085   170.864392  3.121596  2793.087540  1.266434 0.879664   1
95.693753   166.379723  2.513082  2600.980611  1.329352 0.927980   1
96.173421   162.949282  1.245045  2432.357807  1.390560 0.973836   1
96.653088   157.377581  -0.549912  2233.233510  1.473940 1.038689   1
97.132756   158.753901  -0.352022  2138.463587  1.511904 1.062533   1
97.612424   157.033224  1.663553  2093.268483  1.543052 1.087725   1
98.092092   151.241062  0.045546  1996.943352  1.607041 1.140769   1
98.571760   149.637822  -0.326011  1889.160533  1.667778 1.185664   1
99.051428   146.724348  -0.949588  1751.016598  1.753825 1.251171   1
99.531096   144.016485  -1.104207  1642.896474  1.832994 1.312268   1
100.010764   141.558029  -0.568874  1533.298641  1.920575 1.379964   1
100.490432   144.220244  -0.197385  1361.113358  2.037071 1.457043   1
100.970100   153.162914  -0.506534  978.598825  2.369885 1.671058   1
101.449768   165.058258  1.985330  633.086787  2.905252 2.016492   1
101.929436   169.744031  4.456151  459.686838  3.409134 2.355512   1
102.409104   175.100915  -1.662451  324.565290  4.049562 2.768725   1
102.888772   187.760032  -0.794391  227.053164  4.809303 3.239218   1
103.368440   191.468857  -3.498713  161.375797  5.727591 3.840376   1
103.848107   199.677814  -4.756165  124.330889  6.530653 4.339363   1
104.327775   194.362912  -3.826798  102.411104  7.289277 4.886041   1
104.807443   201.796644  4.039567  91.150923  7.747653 5.177722   1
105.287111   209.337360  11.050513  80.823151  8.255836 5.504173   1
105.766779   201.850725  -0.311197  74.931986  8.657163 5.782705   1
106.246447   197.572296  -25.500158  63.471839  9.453444 6.291857   1
106.726115   193.294736  5.418629  57.880662  10.113801 6.883670   1
107.205783   194.341004  14.952703  46.450756  11.449468 7.882576   1
107.685451   212.341611  8.578164  34.441661  13.316759 8.973202   1
108.165119   236.981285  3.713722  26.234466  15.325838 10.082385   1
108.644787   264.876793  16.529568  18.773030  18.516671 12.105051   1
109.124455   198.259771  -10.695858  15.243421  21.801056 15.154524   1
109.604123   234.555441  -10.202862  13.286803  23.088197 15.462443   1
110.083791   222.515619  -11.422071  12.502961  24.287915 16.524951   1
110.563459   300.613484  44.886502  11.230850  25.741034 17.183312   1
111.043126   272.937503  -7.083566  10.311113  27.052558 17.689324   1
111.522794   334.019419  30.427383  10.451520  27.093730 17.391399   1
112.002462   293.374979  63.921620  10.335051  27.710903 19.269420   1
112.482130   319.606704  -44.560085  7.002037  34.752772 21.850520   1
112.961798   343.095445  -28.350912  8.086018  31.961966 19.806790   1
113.441466   311.288712  -74.851249  6.096828  38.269057 24.142611   1
113.921134   277.392429  -23.855161  6.591491  37.242637 24.586223   1
114.400802   322.318275  14.981947  5.401385  43.204838 28.619899   1
114.880470   336.961956  -72.111126  6.140257  38.837152 24.062959   1
115.360138   430.728719  27.687453  6.161009  40.490578 25.176428   1
115.839806   194.265797  78.323259  4.981361  50.834958 47.702045   1
116.319474   445.618761  -14.131875  4.616653  49.766479 30.300205   1
116.799142   321.835209  21.205201  5.016648  47.002017 31.552765   1
117.278810   426.810412  55.180822  4.796098  49.839411 32.336879   1
117.758478   337.850912  -62.160908  4.649861  49.003045 30.913204   1
118.238145   160.687634  -38.784389  4.118733  64.518188 51.161306   1
118.717813   259.130731  -42.295842  5.001710  47.902502 32.539589   1
119.197481   230.507633  -101.188374  3.160553  66.780143 48.488222   1
119.677149   215.234511  23.465627  3.164184  73.702421 57.378260   1
120.156817   311.544380  29.724402  4.106096  56.993344 39.584410   1
120.636485   257.498344  144.348936  4.151722  58.954781 62.033717   1
121.116153   328.257204  43.508396  3.866551  60.533221 42.391372   1
121.595821   255.458432  -103.454870  2.401915  84.757231 60.031898   1
122.075489   281.978566  -147.007676  2.711468  75.862384 51.136757   1
122.555157   200.000000  0.000000  2.653260  86.145871 45.257225   999
123.034825   200.000000  0.000000  2.624363  90.243176 75.868272   999
123.514493   229.487661  -147.209112  2.511967  82.348181 61.168162   1
123.994161   200.000000  0.000000  2.544573  -999.000000 -999.000000   -1
124.473829   200.000000  0.000000  2.304959  106.837759 47.191717   999
124.953496   200.000000  0.000000  2.848255  83.125405 201.234971   0
125.433164   200.000000  0.000000  1.279854  250.455993 336.574402   0
125.912832   200.000000  0.000000  0.794333  313.945206 203.809196   999
126.392500   200.000000  0.000000  2.126684  96.811180 202.316935   0
126.872168   200.000000  0.000000  0.718957  400.423112 153.855255   999
127.351836   200.000000  0.000000  1.129787  -999.000000 -999.000000   -1
127.831504   200.000000  0.000000  0.573985  -999.000000 -999.000000   -1
128.311172   200.000000  0.000000  0.732560  -999.000000 -999.000000   -1
128.790840   200.000000  0.000000  0.792062  -999.000000 -999.000000   -1
129.270508   200.000000  0.000000  1.347565  160.997311 109.448440   0
129.750176   108.646092  75.377506  0.710938  504.860678 870.585839   1
