116   2013  11  27  3.194069  90.000000  0.000000  1686.000000
Altitude(km) Temperature(K)  Wind(m/s)   NaDensity(cm^-3)    TempErr(K)  WindErr(m/s)    RealValue
74.588364   200.000000  0.000000  0.186194  -999.000000 -999.000000   -1
75.068031   200.000000  0.000000  -0.173187  -999.000000 -999.000000   -1
75.547699   200.000000  0.000000  -0.084351  -999.000000 -999.000000   -1
76.027367   200.000000  0.000000  0.343786  72.298766 37.382042   999
76.507035   209.199731  -17.356823  2.288104  36.103879 23.184032   1
76.986703   218.342090  27.336939  10.267759  15.523815 10.748988   1
77.466371   223.811272  7.837495  37.408889  7.853031 5.307821   1
77.946039   230.726690  2.842241  70.334827  5.702076 3.808009   1
78.425707   216.193873  0.118559  81.555831  5.356946 3.626240   1
78.905375   222.150663  9.950752  74.379323  5.645255 3.822129   1
79.385043   211.217759  1.527974  71.445329  5.823636 3.971089   1
79.864711   213.017102  6.682362  78.263331  5.595914 3.819889   1
80.344379   213.124617  3.542051  163.502549  3.875179 2.634411   1
80.824047   220.939092  1.389204  663.101213  1.921250 1.291277   1
81.303715   225.778075  -0.518376  1281.484639  1.386586 0.925839   1
81.783383   225.125594  0.210813  1367.567603  1.351616 0.903147   1
82.263050   222.798857  1.106302  1393.131837  1.349584 0.904110   1
82.742718   222.626532  1.077916  1726.964641  1.220054 0.817128   1
83.222386   224.900029  3.431781  2060.921048  1.123682 0.751420   1
83.702054   221.972054  2.300943  2149.119920  1.108944 0.742965   1
84.181722   220.369527  1.453004  2172.935715  1.110920 0.744779   1
84.661390   216.155048  -0.290534  2227.577966  1.106459 0.744020   1
85.141058   213.517123  0.650605  2316.218014  1.094160 0.737814   1
85.620726   208.862198  0.986821  2329.086718  1.101559 0.746355   1
86.100394   205.233668  0.830945  2262.989899  1.127638 0.766648   1
86.580062   202.980683  -0.480674  2191.713662  1.154916 0.786179   1
87.059730   200.063130  1.734060  2176.611805  1.169663 0.799463   1
87.539398   199.908960  1.261068  2214.747631  1.167193 0.797189   1
88.019066   196.952941  -0.860020  2349.652907  1.142642 0.781744   1
88.498734   197.871411  -1.218603  2418.377364  1.132808 0.773456   1
88.978402   195.345090  0.620920  2515.014768  1.120920 0.767912   1
89.458069   198.357199  -0.012771  2845.888805  1.057975 0.721320   1
89.937737   198.238954  1.116635  2981.388890  1.040973 0.709673   1
90.417405   194.088454  0.507374  2913.424171  1.063596 0.727872   1
90.897073   190.746610  1.578815  2821.602381  1.091514 0.749889   1
91.376741   187.908641  2.597863  2738.417067  1.118600 0.771060   1
91.856409   183.186713  1.775355  2628.377816  1.154646 0.799695   1
92.336077   179.214037  3.533272  2645.964819  1.163932 0.810558   1
92.815745   175.263258  2.661010  2677.959650  1.169858 0.817874   1
93.295413   173.945521  4.535243  2663.594009  1.183158 0.828919   1
93.775081   169.658523  3.704634  2577.999006  1.217314 0.856712   1
94.254749   165.097424  2.462796  2473.154961  1.259056 0.890350   1
94.734417   161.785870  2.103101  2329.305440  1.312579 0.931647   1
95.214085   158.230898  2.887521  2235.907286  1.356778 0.967762   1
95.693753   154.607401  0.863768  2221.672919  1.378288 0.986380   1
96.173421   152.087640  0.254638  2233.888884  1.389823 0.997246   1
96.653088   148.713346  1.743288  2134.631698  1.441450 1.039763   1
97.132756   147.204394  0.771073  1975.279290  1.512531 1.092068   1
97.612424   145.196061  -1.536201  2107.617506  1.479053 1.068980   1
98.092092   145.388336  -0.569895  2295.920588  1.425341 1.029493   1
98.571760   150.653908  -0.194017  2207.230374  1.445730 1.034987   1
99.051428   156.623109  0.097991  1757.922097  1.611083 1.142308   1
99.531096   159.309992  1.564163  1460.810806  1.769973 1.250384   1
100.010764   159.588510  -0.799156  1251.107505  1.921683 1.354535   1
100.490432   155.729295  0.577179  1077.770380  2.097862 1.487942   1
100.970100   158.477199  -1.128381  738.579074  2.535911 1.789542   1
101.449768   167.964581  -1.827753  373.253669  3.538187 2.464178   1
101.929436   169.653691  -4.209923  175.939986  5.190332 3.611329   1
102.409104   180.487793  1.326619  101.136047  6.838822 4.719696   1
102.888772   187.176609  3.876703  72.264064  8.124567 5.585642   1
103.368440   191.025895  -3.560958  68.790313  8.328124 5.674856   1
103.848107   190.372395  -11.222286  68.512649  8.373650 5.690634   1
104.327775   209.575843  -6.903830  71.369650  8.117644 5.396635   1
104.807443   198.237632  -16.972005  70.078370  8.281273 5.559044   1
105.287111   204.928029  16.522754  64.086268  8.747710 5.949979   1
105.766779   218.370923  6.219677  55.351888  9.388825 6.249103   1
106.246447   223.890964  -12.353709  50.816197  9.793784 6.420842   1
106.726115   220.747441  0.806675  43.465993  10.747355 7.138567   1
107.205783   202.362313  -6.361262  33.260172  12.616226 8.574093   1
107.685451   249.442032  16.363831  25.867166  14.250435 9.396150   1
108.165119   214.067668  -12.547553  20.027865  16.705159 11.314516   1
108.644787   238.477669  5.762091  15.350414  19.379216 13.039827   1
109.124455   214.701972  -21.158678  11.432698  23.392425 16.118572   1
109.604123   320.123247  6.907777  9.975786  24.906680 15.887972   1
110.083791   202.069451  -7.540280  8.009858  30.178069 21.650888   1
110.563459   285.953112  -9.639571  4.761439  40.597123 27.306980   1
111.043126   195.777481  -126.329371  3.948354  45.691734 35.581182   1
111.522794   300.760572  13.749899  3.697622  49.335323 33.900979   1
112.002462   163.256750  -54.558654  3.196303  62.460045 51.108923   1
112.482130   368.731688  21.011975  2.565762  65.554059 43.962926   1
112.961798   193.668016  -89.839479  2.604257  66.462769 52.968068   1
113.441466   309.679993  -58.848899  2.553826  64.941619 43.381567   1
113.921134   231.059543  -70.687974  2.002989  81.016172 60.231807   1
114.400802   126.816179  -158.160968  1.942030  85.777350 98.553904   1
114.880470   200.000000  0.000000  1.442455  126.475068 54.492967   999
115.360138   193.267628  42.621173  1.611560  112.058250 98.192588   1
115.839806   378.569789  53.869324  1.099839  139.558791 100.939060   1
116.319474   200.000000  0.000000  0.417657  -999.000000 -999.000000   -1
116.799142   200.000000  0.000000  0.658062  -999.000000 -999.000000   -1
117.278810   209.673735  22.543923  1.369079  127.924996 104.435841   1
117.758478   200.000000  0.000000  0.231406  -999.000000 -999.000000   -1
118.238145   200.000000  0.000000  0.374169  -999.000000 -999.000000   -1
118.717813   234.951375  -162.656964  0.694623  201.873281 159.858094   1
119.197481   107.467032  142.694193  0.609676  322.809318 1655.195388   1
119.677149   404.863055  -25.772117  0.472858  309.686404 208.804986   1
120.156817   200.000000  0.000000  0.879191  -999.000000 -999.000000   -1
120.636485   200.000000  0.000000  0.179670  -999.000000 -999.000000   -1
121.116153   168.146800  -178.288463  0.682920  214.538644 208.757270   1
121.595821   200.000000  0.000000  -0.307788  -999.000000 -999.000000   -1
122.075489   200.000000  0.000000  0.366742  -999.000000 -999.000000   -1
122.555157   200.000000  0.000000  0.278310  -999.000000 -999.000000   -1
123.034825   200.000000  0.000000  0.817705  -999.000000 -999.000000   -1
123.514493   200.000000  0.000000  -0.090906  -999.000000 -999.000000   -1
123.994161   200.000000  0.000000  -0.326260  -999.000000 -999.000000   -1
124.473829   200.000000  0.000000  0.535072  -999.000000 -999.000000   -1
124.953496   200.000000  0.000000  0.457631  -999.000000 -999.000000   -1
125.433164   200.000000  0.000000  -0.051318  -999.000000 -999.000000   -1
125.912832   200.000000  0.000000  -0.253752  -999.000000 -999.000000   -1
126.392500   200.000000  0.000000  -0.129422  -999.000000 -999.000000   -1
126.872168   200.000000  0.000000  0.137759  -999.000000 -999.000000   -1
127.351836   333.971416  95.534793  0.344695  493.223969 423.732718   1
127.831504   200.000000  0.000000  0.056387  -999.000000 -999.000000   -1
128.311172   200.000000  0.000000  -0.207247  -999.000000 -999.000000   -1
128.790840   200.000000  0.000000  -0.143763  -999.000000 -999.000000   -1
129.270508   200.000000  0.000000  -0.204672  -999.000000 -999.000000   -1
129.750176   200.000000  0.000000  0.373084  -999.000000 -999.000000   -1
