116   2013  11  27  12.368228  90.000000  0.000000  1686.000000
Altitude(km) Temperature(K)  Wind(m/s)   NaDensity(cm^-3)    TempErr(K)  WindErr(m/s)    RealValue
74.588364   200.000000  0.000000  -0.352819  -999.000000 -999.000000   -1
75.068031   200.000000  0.000000  -0.017915  -999.000000 -999.000000   -1
75.547699   200.000000  0.000000  0.064921  963.341445 59.530835   0
76.027367   200.000000  0.000000  0.193492  91.494749 52.560003   999
76.507035   200.000000  0.000000  -0.156058  -999.000000 -999.000000   -1
76.986703   200.000000  0.000000  -0.122304  -999.000000 -999.000000   -1
77.466371   200.000000  0.000000  -0.447226  -999.000000 -999.000000   -1
77.946039   200.000000  0.000000  -0.051583  -999.000000 -999.000000   -1
78.425707   200.000000  0.000000  -0.149766  -999.000000 -999.000000   -1
78.905375   200.000000  0.000000  -0.009605  -999.000000 -999.000000   -1
79.385043   200.000000  0.000000  0.730555  78.664747 53.789780   0
79.864711   230.734707  -0.141658  192.117650  3.774166 2.482590   1
80.344379   224.810268  2.676275  618.358780  2.117555 1.401346   1
80.824047   220.039744  2.227400  849.572300  1.821211 1.210549   1
81.303715   224.829506  0.092183  1044.779118  1.648262 1.088349   1
81.783383   219.965476  -3.275141  1357.176806  1.457320 0.965007   1
82.263050   218.966685  -1.699749  1510.133099  1.391738 0.923005   1
82.742718   212.463541  1.473646  1529.767725  1.397685 0.934905   1
83.222386   210.206214  -2.496415  1599.507610  1.376375 0.920445   1
83.702054   210.991125  -1.432454  1674.956351  1.353575 0.904532   1
84.181722   213.902306  -2.390674  2012.297916  1.240622 0.825498   1
84.661390   211.572073  -1.780740  2380.816937  1.149785 0.766836   1
85.141058   208.677888  -1.616505  2432.791109  1.147199 0.767164   1
85.620726   206.641554  0.002465  2444.685065  1.154121 0.773782   1
86.100394   208.620319  1.106434  2851.491600  1.074761 0.718894   1
86.580062   214.304105  0.251811  3500.593134  0.973282 0.646014   1
87.059730   212.541133  -0.449089  3585.682601  0.969324 0.643754   1
87.539398   207.588230  0.440321  3469.133136  0.995681 0.664645   1
88.019066   202.370801  -2.192963  3344.500880  1.024191 0.686091   1
88.498734   198.134878  -2.093838  3155.462414  1.065220 0.716520   1
88.978402   194.580810  -2.777340  3026.132653  1.098255 0.740953   1
89.458069   191.100793  -1.263981  2884.062009  1.136578 0.770082   1
89.937737   187.324782  -0.808510  2740.178760  1.178271 0.801651   1
90.417405   185.823468  -3.330772  2671.938303  1.202244 0.817645   1
90.897073   180.766834  -0.546527  2602.587186  1.233760 0.845267   1
91.376741   179.012872  -2.346311  2623.919885  1.238746 0.849032   1
91.856409   176.368188  -0.550816  2649.291322  1.245416 0.856797   1
92.336077   172.015462  0.800712  2578.791712  1.278224 0.884580   1
92.815745   168.319834  2.331916  2409.558928  1.338443 0.931187   1
93.295413   164.981784  0.375484  2365.818207  1.365694 0.952644   1
93.775081   161.462539  0.151205  2282.226528  1.407341 0.985746   1
94.254749   157.874547  0.410524  2110.904666  1.482064 1.042928   1
94.734417   154.895179  1.145307  2151.868379  1.485551 1.049726   1
95.214085   154.247217  0.072271  2193.591136  1.481989 1.046637   1
95.693753   153.020107  -1.011930  2171.694720  1.501978 1.061130   1
96.173421   153.835197  -0.742375  2143.410604  1.518887 1.071049   1
96.653088   151.852222  -2.922597  2123.678691  1.540584 1.087352   1
97.132756   148.783644  -2.091764  2042.704163  1.591239 1.128056   1
97.612424   145.186919  -4.507276  1885.735035  1.678917 1.194453   1
98.092092   145.370520  -1.014929  1790.507937  1.734371 1.235079   1
98.571760   151.518010  -3.277506  1567.242752  1.838655 1.294414   1
99.051428   181.690796  -5.159982  977.568468  2.235534 1.505948   1
99.531096   190.964721  -0.018422  710.691598  2.616737 1.747153   1
100.010764   190.130667  1.443119  624.215513  2.810857 1.880445   1
100.490432   188.285949  -7.139924  574.356551  2.944859 1.965091   1
100.970100   183.647038  1.709346  515.769809  3.146762 2.123211   1
101.449768   177.802244  -1.415605  465.751518  3.349331 2.273272   1
101.929436   178.164004  1.374455  410.352306  3.589228 2.439658   1
102.409104   174.300986  5.782762  366.284663  3.842749 2.634601   1
102.888772   172.693346  -0.010029  312.617101  4.187528 2.867192   1
103.368440   184.800726  -3.135926  247.971485  4.659889 3.135916   1
103.848107   180.939063  -0.734295  207.674869  5.149794 3.491341   1
104.327775   193.401861  4.360206  170.650774  5.653648 3.788742   1
104.807443   195.494335  4.932017  125.620801  6.634779 4.447030   1
105.287111   203.374245  4.658779  99.956845  7.451945 4.957009   1
105.766779   220.845111  5.707168  83.275486  8.142377 5.323748   1
106.246447   218.845879  -3.573536  63.216367  9.437890 6.171279   1
106.726115   213.434240  3.023309  53.695790  10.389040 6.884701   1
107.205783   207.994223  -11.886990  46.191196  11.309576 7.497551   1
107.685451   222.089771  13.345975  38.756364  12.457231 8.302995   1
108.165119   195.223676  -16.145672  33.785481  13.669078 9.261302   1
108.644787   232.890741  18.175597  28.805056  14.731353 9.831088   1
109.124455   195.979159  31.129245  23.844785  16.966067 12.173063   1
109.604123   213.628750  38.028207  22.537825  17.344125 12.289085   1
110.083791   260.438346  -12.255803  20.082525  17.993645 11.560595   1
110.563459   264.520728  9.562372  17.526274  19.649465 12.842548   1
111.043126   202.915525  -18.328774  16.585065  20.970744 14.431526   1
111.522794   282.565298  11.827286  16.219612  20.706156 13.391489   1
112.002462   235.800094  -57.428771  12.758518  23.819956 15.758683   1
112.482130   246.097382  -20.282045  13.083557  23.804202 15.742674   1
112.961798   187.383362  -61.619137  11.125493  27.190682 19.560857   1
113.441466   303.579944  -61.195524  9.065470  29.472162 18.516252   1
113.921134   234.777579  -67.832064  9.546654  29.003985 19.516489   1
114.400802   346.735679  9.537103  8.845216  30.843890 19.577306   1
114.880470   226.727665  24.271096  9.425939  30.792208 22.149890   1
115.360138   410.693265  62.724563  7.249821  36.305326 23.542802   1
115.839806   233.658603  -27.950356  7.603017  35.041600 24.163149   1
116.319474   168.323696  1.558555  7.400552  40.305603 31.041919   1
116.799142   254.662197  86.630591  7.057494  37.883381 30.691222   1
117.278810   285.399340  43.732398  6.414597  39.934601 28.409622   1
117.758478   294.580649  -36.460952  7.342241  35.746161 23.189171   1
118.238145   202.783016  99.725736  5.352252  48.324390 49.296632   1
118.717813   495.224544  106.088527  5.337335  48.140783 31.885012   1
119.197481   256.581172  34.672482  4.872266  50.044386 37.104250   1
119.677149   322.337816  -36.507775  5.484373  44.497190 28.750314   1
120.156817   200.000000  0.000000  5.488131  45.890516 25.761241   0
120.636485   200.000000  0.000000  5.000462  48.929576 27.567014   0
121.116153   273.707836  -46.861409  4.771139  50.137604 33.955258   1
121.595821   188.426917  -18.357656  4.237609  61.116190 46.772206   1
122.075489   200.000000  0.000000  3.274399  67.041100 40.053984   0
122.555157   271.998265  11.981438  3.398923  67.346329 48.772273   1
123.034825   200.000000  0.000000  2.878817  74.177040 42.885873   0
123.514493   176.664449  -72.458358  2.991625  80.239306 65.873781   1
123.994161   419.377180  49.377387  2.743892  81.574488 55.683031   1
124.473829   235.132678  171.054862  2.229744  100.372429 149.189291   1
124.953496   302.287545  -102.696980  2.550536  82.544639 55.722889   1
125.433164   173.839533  130.951257  1.189677  186.520875 332.872928   1
125.912832   390.280934  29.850891  2.926329  78.554123 53.344538   1
126.392500   260.443833  158.801440  1.841990  120.608943 151.433860   1
126.872168   153.356867  124.812437  1.458372  166.257068 331.579881   1
127.351836   200.000000  0.000000  0.041793  -999.000000 -999.000000   -1
127.831504   200.000000  0.000000  0.580563  -999.000000 -999.000000   -1
128.311172   213.892316  36.606925  0.809147  270.294122 237.427787   1
128.790840   200.000000  0.000000  -0.260063  -999.000000 -999.000000   -1
129.270508   200.000000  0.000000  0.567782  1046.779384 131.919608   999
129.750176   200.000000  0.000000  1.391903  249.461506 81.631342   999
