116   2013  11  27  12.032519  90.000000  0.000000  1686.000000
Altitude(km) Temperature(K)  Wind(m/s)   NaDensity(cm^-3)    TempErr(K)  WindErr(m/s)    RealValue
74.588364   200.000000  0.000000  -0.584100  -999.000000 -999.000000   -1
75.068031   200.000000  0.000000  -0.070040  -999.000000 -999.000000   -1
75.547699   200.000000  0.000000  -0.170658  -999.000000 -999.000000   -1
76.027367   200.000000  0.000000  0.055228  -999.000000 -999.000000   -1
76.507035   200.000000  0.000000  -0.256175  -999.000000 -999.000000   -1
76.986703   200.000000  0.000000  0.145191  117.335500 61.319461   0
77.466371   214.694993  9.490574  0.458615  107.463750 54.349872   1
77.946039   200.000000  0.000000  -0.263212  -999.000000 -999.000000   -1
78.425707   200.000000  0.000000  0.266043  -999.000000 -999.000000   -1
78.905375   200.000000  0.000000  -0.053684  -999.000000 -999.000000   -1
79.385043   200.000000  0.000000  0.261924  -999.000000 -999.000000   -1
79.864711   200.000000  0.000000  -0.006847  -999.000000 -999.000000   -1
80.344379   248.818848  -3.184917  23.491004  11.066419 7.261704   1
80.824047   217.916086  -5.114824  234.084970  3.470568 2.313980   1
81.303715   223.054195  -1.146768  1028.722964  1.658869 1.100662   1
81.783383   224.704295  -4.125933  1901.627133  1.225847 0.810254   1
82.263050   220.874589  -2.161503  1997.827872  1.206666 0.801225   1
82.742718   220.053031  -1.694808  1944.964516  1.231911 0.818489   1
83.222386   213.603732  -2.858836  1863.644318  1.270845 0.849305   1
83.702054   210.425036  -2.210592  1776.306528  1.313042 0.880494   1
84.181722   204.183112  -0.232209  1716.378465  1.350624 0.912766   1
84.661390   205.827730  0.183711  1927.013278  1.281704 0.864294   1
85.141058   205.886930  0.154449  2191.252896  1.209791 0.815252   1
85.620726   207.073442  -1.566807  2466.515935  1.146543 0.770309   1
86.100394   208.703393  1.482749  2928.174835  1.059051 0.710940   1
86.580062   209.912303  2.085194  3223.345000  1.015788 0.680633   1
87.059730   207.782201  3.543339  3251.666458  1.020148 0.685205   1
87.539398   202.849159  3.835208  3233.587988  1.033643 0.697736   1
88.019066   202.289792  1.531858  3245.421223  1.038861 0.700052   1
88.498734   200.264773  3.979892  3353.353714  1.031223 0.696974   1
88.978402   198.242676  2.894423  3356.664276  1.039282 0.702939   1
89.458069   195.179272  1.940001  3276.253345  1.061692 0.719623   1
89.937737   190.899664  3.140256  3157.275209  1.093378 0.744870   1
90.417405   185.156982  3.281676  3023.596438  1.131269 0.775659   1
90.897073   182.536337  1.031260  2911.117719  1.163375 0.798483   1
91.376741   178.750861  2.050442  2875.498325  1.183766 0.816313   1
91.856409   176.210650  1.285373  2780.630763  1.215365 0.839770   1
92.336077   172.140149  0.338202  2677.294450  1.253119 0.869373   1
92.815745   168.406526  2.055242  2574.194178  1.293672 0.902370   1
93.295413   164.264395  0.632230  2482.068297  1.333990 0.934310   1
93.775081   161.147639  1.017878  2441.645349  1.360743 0.956755   1
94.254749   160.181777  0.433476  2372.196861  1.391501 0.978541   1
94.734417   159.838574  0.694108  2352.210317  1.407218 0.989400   1
95.214085   155.385201  0.349901  2326.268824  1.435502 1.014896   1
95.693753   153.231214  0.705080  2225.018312  1.483465 1.051563   1
96.173421   150.221820  -1.642251  2062.259479  1.559333 1.107940   1
96.653088   148.179429  -1.412848  1971.712447  1.611847 1.148139   1
97.132756   145.371914  -1.160861  1906.801987  1.659832 1.186803   1
97.612424   143.892040  -0.390094  1839.131646  1.706735 1.222866   1
98.092092   144.530681  -0.830207  1789.597659  1.737680 1.242547   1
98.571760   152.205685  1.950268  1543.348745  1.852011 1.310154   1
99.051428   175.963996  -4.392027  984.994552  2.241670 1.526356   1
99.531096   192.513954  -1.538209  654.879154  2.720651 1.816313   1
100.010764   197.873271  1.339238  507.596072  3.096949 2.058008   1
100.490432   195.266878  -1.621483  453.045152  3.300923 2.196879   1
100.970100   193.426590  7.819975  398.872418  3.550974 2.383699   1
101.449768   184.384331  -1.638101  356.492501  3.802033 2.566398   1
101.929436   187.969729  0.864188  318.837966  4.030577 2.712885   1
102.409104   183.275712  1.071313  296.337445  4.224354 2.861579   1
102.888772   188.802674  2.276977  271.277949  4.415544 2.972830   1
103.368440   181.009731  3.116713  243.702733  4.725359 3.217102   1
103.848107   183.336871  4.789211  205.842030  5.162631 3.510803   1
104.327775   181.887692  -3.891782  163.280075  5.835907 3.959652   1
104.807443   197.495920  9.964737  123.970228  6.672223 4.488371   1
105.287111   212.588787  10.477393  84.693233  8.075420 5.357219   1
105.766779   226.448148  0.412953  61.746460  9.477660 6.173387   1
106.246447   205.896687  -5.490049  47.401079  11.081431 7.394277   1
106.726115   235.419557  11.672652  39.660341  12.096405 7.932907   1
107.205783   238.650773  2.788021  36.111916  12.745279 8.294070   1
107.685451   234.603609  10.363540  32.424583  13.631158 8.984558   1
108.165119   270.633683  39.418988  28.376565  14.677329 9.624097   1
108.644787   260.864959  -0.758207  24.453642  15.908748 10.216465   1
109.124455   205.238452  11.788428  25.287732  16.209364 11.164507   1
109.604123   243.787900  21.850764  23.319169  16.683954 11.126855   1
110.083791   232.295440  -7.359265  18.154756  19.320042 12.848169   1
110.563459   202.322184  -10.348199  17.704888  20.159784 13.882922   1
111.043126   258.803947  -6.613243  16.899021  20.134012 13.083283   1
111.522794   279.301904  49.963087  13.562273  23.263692 15.850750   1
112.002462   254.019341  9.057043  13.241784  23.660869 15.807352   1
112.482130   261.581616  16.753060  10.754967  27.013215 18.238050   1
112.961798   294.818778  48.469352  9.008208  30.385731 20.851751   1
113.441466   333.333519  -44.192471  8.413482  31.105347 19.256489   1
113.921134   359.400877  95.647244  9.064575  31.039921 21.420578   1
114.400802   281.200290  -88.208406  7.178174  34.459946 22.153044   1
114.880470   317.697213  61.812907  6.841760  37.271791 26.012409   1
115.360138   243.289550  34.710018  6.246169  40.479004 29.665101   1
115.839806   397.912071  0.396852  6.487957  38.618891 23.946433   1
116.319474   232.591228  -21.570735  4.755570  49.179792 34.821127   1
116.799142   193.002353  -102.782835  5.537207  43.548510 33.014128   1
117.278810   251.693043  80.359286  5.947049  42.996990 34.793401   1
117.758478   270.170390  -48.692054  5.845662  41.841045 27.845394   1
118.238145   256.357506  -36.351808  5.444579  44.687176 30.432800   1
118.717813   323.008509  -86.517438  5.930446  41.238487 25.876813   1
119.197481   345.756509  -23.565257  5.707134  43.332142 27.526286   1
119.677149   187.488615  15.960259  4.964507  54.017372 42.214553   1
120.156817   377.930388  4.675497  5.144829  47.644799 30.447017   1
120.636485   200.000000  0.000000  5.158184  47.920065 31.240920   0
121.116153   353.760974  39.405114  4.503915  53.501411 36.287011   1
121.595821   200.000000  0.000000  4.669721  50.336811 29.762158   0
122.075489   215.669718  32.852506  4.239478  59.932531 47.113427   1
122.555157   282.370331  105.082623  4.036833  60.496762 51.860781   1
123.034825   439.411932  -62.437292  4.435398  54.585380 32.875585   1
123.514493   130.037277  -92.884578  2.482474  106.467155 109.511910   1
123.994161   351.935865  65.786786  2.506659  87.961137 64.646534   1
124.473829   266.080373  86.117558  3.646381  67.059313 56.712470   1
124.953496   125.226999  -103.700865  1.131415  216.943967 247.378165   1
125.433164   200.000000  0.000000  1.773368  113.036472 67.789068   0
125.912832   200.000000  0.000000  2.537416  85.651348 48.871874   0
126.392500   200.000000  0.000000  1.602818  126.934502 72.077189   999
126.872168   200.000000  0.000000  0.872952  788.319148 3335.523342   999
127.351836   200.000000  0.000000  1.133375  -999.000000 -999.000000   -1
127.831504   198.144637  34.852593  1.723358  140.572075 120.922829   1
128.311172   200.000000  0.000000  0.211565  -999.000000 -999.000000   -1
128.790840   219.987526  -143.888943  1.930662  108.772662 84.625349   1
129.270508   200.000000  0.000000  0.919739  227.766883 242.423522   0
129.750176   270.286342  -125.116214  1.194807  166.882491 120.419581   1
