116   2013  11  27  9.592353  90.000000  0.000000  1686.000000
Altitude(km) Temperature(K)  Wind(m/s)   NaDensity(cm^-3)    TempErr(K)  WindErr(m/s)    RealValue
74.588364   200.000000  0.000000  0.146461  -999.000000 -999.000000   -1
75.068031   200.000000  0.000000  0.001526  -999.000000 -999.000000   -1
75.547699   200.000000  0.000000  -0.203643  -999.000000 -999.000000   -1
76.027367   200.000000  0.000000  0.019935  -999.000000 -999.000000   -1
76.507035   154.677628  -3.344529  0.255557  179.854469 61.574122   1
76.986703   200.000000  0.000000  0.025961  -999.000000 -999.000000   -1
77.466371   200.000000  0.000000  -0.349679  -999.000000 -999.000000   -1
77.946039   200.000000  0.000000  0.211330  -999.000000 -999.000000   -1
78.425707   200.000000  0.000000  -0.049213  -999.000000 -999.000000   -1
78.905375   200.000000  0.000000  0.099881  -999.000000 -999.000000   -1
79.385043   200.000000  0.000000  0.146211  -999.000000 -999.000000   -1
79.864711   200.000000  0.000000  -0.315006  -999.000000 -999.000000   -1
80.344379   200.000000  0.000000  0.478444  117.050005 86.057829   0
80.824047   200.000000  0.000000  -0.285189  -999.000000 -999.000000   -1
81.303715   225.313739  -33.651218  6.326324  23.780859 16.097165   1
81.783383   198.135441  2.824952  178.705787  4.107646 2.802384   1
82.263050   198.723530  1.016796  572.507437  2.297375 1.561142   1
82.742718   198.043531  0.023083  751.947126  2.016791 1.370250   1
83.222386   201.363710  1.766190  1327.759678  1.523090 1.031236   1
83.702054   213.541484  2.063169  2229.388351  1.173625 0.783320   1
84.181722   216.885464  3.732415  2561.395780  1.100781 0.732276   1
84.661390   217.623164  0.442234  2905.849111  1.039425 0.689058   1
85.141058   219.254251  -0.206964  3347.971108  0.974198 0.643922   1
85.620726   219.682678  -0.245742  3480.369374  0.962129 0.635065   1
86.100394   217.405474  -0.800787  3534.777134  0.962509 0.636078   1
86.580062   218.458454  -0.487873  3763.345598  0.939093 0.619408   1
87.059730   218.543939  -0.583761  4107.312839  0.905352 0.596452   1
87.539398   231.428739  2.441553  5214.218257  0.805587 0.523980   1
88.019066   236.773816  1.885818  5993.986206  0.755728 0.488148   1
88.498734   233.852297  1.441852  5845.434755  0.772050 0.499258   1
88.978402   230.946497  2.354033  5644.784078  0.792844 0.513710   1
89.458069   226.998110  2.618949  5439.209658  0.815285 0.529699   1
89.937737   220.761465  2.967107  5199.845497  0.842620 0.550384   1
90.417405   215.796163  2.929541  4976.948682  0.869984 0.570509   1
90.897073   213.385986  1.352908  4779.783609  0.895283 0.587310   1
91.376741   208.205336  1.910603  4658.787299  0.916471 0.604120   1
91.856409   204.338677  2.181385  4486.355870  0.943235 0.623816   1
92.336077   201.627609  5.201847  4278.999281  0.975371 0.647517   1
92.815745   197.098142  3.765311  4140.991409  1.001730 0.667184   1
93.295413   192.796657  3.244531  3988.492050  1.031537 0.689590   1
93.775081   193.346989  3.160765  3818.236948  1.061194 0.708030   1
94.254749   189.286529  3.505158  3662.816364  1.095078 0.733668   1
94.734417   185.513265  2.350078  3477.814941  1.135434 0.762952   1
95.214085   183.381263  2.732887  3328.755937  1.171141 0.788449   1
95.693753   181.622729  -0.081104  3228.219195  1.198669 0.806580   1
96.173421   179.132203  1.744036  3050.016096  1.245432 0.840878   1
96.653088   174.767490  1.037248  2839.780416  1.305877 0.885631   1
97.132756   170.003743  1.542890  2596.951652  1.383372 0.943805   1
97.612424   166.978853  0.522708  2399.970012  1.454181 0.994851   1
98.092092   163.158424  -0.783906  2222.611041  1.529125 1.050183   1
98.571760   160.321473  -0.466618  2071.579245  1.601347 1.103702   1
99.051428   158.564834  1.702452  1924.966019  1.677360 1.159833   1
99.531096   157.274582  0.063415  1780.541481  1.757935 1.215806   1
100.010764   156.493991  2.431644  1651.961243  1.839560 1.274912   1
100.490432   157.568204  -0.014937  1481.966864  1.948619 1.345481   1
100.970100   155.065895  0.719545  1310.045789  2.094869 1.451911   1
101.449768   152.690273  2.305574  1107.139634  2.303858 1.603674   1
101.929436   152.602109  3.517210  908.729487  2.559177 1.782828   1
102.409104   153.097101  2.654036  752.499787  2.825532 1.965558   1
102.888772   150.087301  0.827628  634.262029  3.114005 2.173645   1
103.368440   151.171664  6.144079  550.171775  3.358885 2.349905   1
103.848107   148.583965  4.391926  479.050267  3.639888 2.553628   1
104.327775   144.107500  0.165198  405.533086  4.018957 2.831962   1
104.807443   142.203137  4.773594  351.198049  4.370749 3.100723   1
105.287111   142.247678  6.102788  291.628380  4.829433 3.431929   1
105.766779   145.492397  -5.633675  212.253925  5.647294 3.967382   1
106.246447   150.058603  1.334524  135.450538  7.096634 4.985488   1
106.726115   169.483555  -10.574955  76.897632  9.215383 6.284211   1
107.205783   180.020046  10.619016  45.022043  12.244292 8.423748   1
107.685451   205.138720  -7.602998  29.209410  15.143256 10.045407   1
108.165119   217.906025  24.656809  20.785220  18.469646 12.553824   1
108.644787   228.412310  23.927831  15.302105  22.126273 15.020204   1
109.124455   229.920715  -62.903852  10.655818  26.964769 17.725112   1
109.604123   332.323788  48.745354  9.020043  30.555102 19.752689   1
110.083791   200.461029  1.372542  6.131527  42.213304 30.244816   1
110.563459   200.000000  0.000000  6.001331  39.316096 21.792017   0
111.043126   450.389460  -51.863794  6.929516  36.696272 21.014049   1
111.522794   316.498755  -17.595760  6.181459  39.549388 24.876319   1
112.002462   179.648742  -85.172809  4.495478  52.652912 40.497892   1
112.482130   213.202604  64.603226  3.594066  64.567982 54.261996   1
112.961798   241.670336  36.509803  4.583706  52.207821 38.126541   1
113.441466   181.694818  132.492437  3.767354  63.718204 89.518984   1
113.921134   307.123426  -29.430104  5.149697  46.242164 29.400164   1
114.400802   263.772023  41.816098  3.882125  59.553852 43.185471   1
114.880470   200.000000  0.000000  3.855702  59.670455 29.580453   999
115.360138   200.000000  0.000000  3.540177  66.502128 30.585639   999
115.839806   200.000000  0.000000  3.702830  65.456423 32.372976   999
116.319474   200.000000  0.000000  3.230696  70.766739 51.783891   0
116.799142   310.114680  145.272620  4.225813  58.583879 51.414490   1
117.278810   212.177578  17.385804  3.457827  70.976955 53.061143   1
117.758478   319.574887  -104.334528  2.762165  76.158766 48.254021   1
118.238145   117.530266  75.926003  2.869707  115.504040 165.949851   1
118.717813   227.205218  46.587935  2.300737  99.744740 79.700384   1
119.197481   317.965470  109.729686  3.638706  67.089313 53.135098   1
119.677149   426.274035  56.412033  2.995529  78.027055 50.811330   1
120.156817   200.000000  0.000000  3.086795  83.655272 37.004590   999
120.636485   106.228380  -150.265736  2.378162  104.955247 138.307307   1
121.116153   200.000000  0.000000  2.545946  102.115425 40.887896   999
121.595821   157.648469  113.160469  1.743243  146.026660 230.319012   1
122.075489   343.202839  -101.517388  2.858382  78.819731 49.022644   1
122.555157   200.000000  0.000000  1.094338  583.836080 68.776530   999
123.034825   200.000000  0.000000  3.907984  66.955917 39.374320   999
123.514493   200.000000  0.000000  1.170342  208.996454 83.439329   999
123.994161   200.000000  0.000000  3.243641  87.747851 70.112618   999
124.473829   275.228112  -132.704221  1.509582  137.327114 94.130253   1
124.953496   200.000000  0.000000  1.801699  175.550643 53.181360   999
125.433164   200.000000  0.000000  1.601560  152.936995 163.290948   999
125.912832   200.000000  0.000000  1.594247  315.202051 91.947489   999
126.392500   200.000000  0.000000  0.923398  -999.000000 -999.000000   -1
126.872168   200.000000  0.000000  0.882489  288.273569 170.548771   999
127.351836   200.000000  0.000000  0.641628  -999.000000 -999.000000   -1
127.831504   200.000000  0.000000  0.799992  1071.021398 71935.823392   999
128.311172   200.000000  0.000000  1.045976  -999.000000 -999.000000   -1
128.790840   200.000000  0.000000  1.855412  312.459674 51.211665   999
129.270508   200.000000  0.000000  1.216311  184.070367 104.540214   999
129.750176   200.000000  0.000000  0.984399  205.920538 265.412648   999
