116   2013  11  27  10.942006  90.000000  0.000000  1686.000000
Altitude(km) Temperature(K)  Wind(m/s)   NaDensity(cm^-3)    TempErr(K)  WindErr(m/s)    RealValue
74.588364   200.000000  0.000000  0.021236  -999.000000 -999.000000   -1
75.068031   200.000000  0.000000  -0.341403  -999.000000 -999.000000   -1
75.547699   200.000000  0.000000  -0.279685  -999.000000 -999.000000   -1
76.027367   200.000000  0.000000  0.285871  -999.000000 -999.000000   -1
76.507035   200.000000  0.000000  -0.104341  -999.000000 -999.000000   -1
76.986703   200.000000  0.000000  0.105259  -999.000000 -999.000000   -1
77.466371   200.000000  0.000000  0.050114  -999.000000 -999.000000   -1
77.946039   200.000000  0.000000  0.324822  -999.000000 -999.000000   -1
78.425707   200.000000  0.000000  -0.042189  -999.000000 -999.000000   -1
78.905375   200.000000  0.000000  0.058845  -999.000000 -999.000000   -1
79.385043   200.000000  0.000000  0.020756  -999.000000 -999.000000   -1
79.864711   200.000000  0.000000  0.042570  -999.000000 -999.000000   -1
80.344379   200.000000  0.000000  0.374281  116.783856 78.662297   999
80.824047   236.659967  3.918130  3.731757  31.560590 21.883319   1
81.303715   210.215691  3.646933  158.204051  4.221854 2.876506   1
81.783383   209.497478  2.054619  639.172984  2.104735 1.430312   1
82.263050   215.514242  -1.493353  1282.069320  1.488128 1.001893   1
82.742718   220.009089  -2.548598  2140.954005  1.155893 0.773608   1
83.222386   222.060187  1.859081  2629.748253  1.050072 0.702568   1
83.702054   220.738480  0.769267  2666.886557  1.050412 0.702846   1
84.181722   215.812850  4.062644  2629.057837  1.068715 0.719807   1
84.661390   212.166037  0.795825  2621.520418  1.079041 0.727744   1
85.141058   211.029446  3.581492  2568.171780  1.099156 0.742960   1
85.620726   206.848427  5.114572  2607.549645  1.101495 0.748278   1
86.100394   204.416015  2.964699  2747.639686  1.081606 0.735283   1
86.580062   206.048846  2.975625  2979.559070  1.044659 0.708251   1
87.059730   204.690631  2.150751  3072.968019  1.036545 0.702895   1
87.539398   204.020110  4.466623  3152.784552  1.031470 0.700385   1
88.019066   202.921138  3.468464  3259.340296  1.022084 0.693827   1
88.498734   204.190500  3.019704  3546.384524  0.985712 0.667308   1
88.978402   205.626957  2.650293  3770.621529  0.961703 0.649145   1
89.458069   204.163055  2.906509  3926.924009  0.950077 0.641787   1
89.937737   201.211336  1.522249  3873.854302  0.965138 0.652931   1
90.417405   197.763542  3.562009  3760.878764  0.989565 0.672306   1
90.897073   194.278502  0.955769  3665.124588  1.011771 0.688436   1
91.376741   191.189498  0.706985  3574.058072  1.034507 0.705714   1
91.856409   188.903725  0.369685  3502.282523  1.054481 0.720468   1
92.336077   186.825740  -0.114471  3423.405143  1.075978 0.736084   1
92.815745   185.234527  -0.402290  3356.058862  1.095858 0.750278   1
93.295413   182.804876  -1.662732  3297.145613  1.115627 0.764850   1
93.775081   182.975194  -2.067843  3213.953510  1.137302 0.778534   1
94.254749   179.829543  -2.457662  3195.894368  1.152042 0.790900   1
94.734417   177.082750  -1.591949  3047.399025  1.191797 0.820746   1
95.214085   172.852507  -1.638232  2854.405110  1.246242 0.862312   1
95.693753   170.148797  -1.998729  2671.975625  1.301160 0.902646   1
96.173421   164.909154  -0.414615  2513.147190  1.361365 0.951451   1
96.653088   161.555758  0.588782  2396.482405  1.410954 0.990641   1
97.132756   159.987586  0.807457  2275.045279  1.461196 1.027544   1
97.612424   156.464863  -0.439136  2122.643218  1.531368 1.080832   1
98.092092   157.039647  1.317535  2007.547534  1.583285 1.116890   1
98.571760   153.793200  -1.058691  1893.917193  1.649182 1.166516   1
99.051428   151.512581  1.382909  1772.129818  1.724125 1.224802   1
99.531096   146.218679  1.503858  1626.290693  1.831726 1.311268   1
100.010764   145.980245  0.516055  1530.189158  1.900015 1.358971   1
100.490432   142.619973  0.472118  1421.382761  1.999033 1.436597   1
100.970100   148.052250  0.288728  1124.423584  2.232095 1.589667   1
101.449768   155.863919  2.859519  785.871899  2.645280 1.864735   1
101.929436   158.258291  6.375176  609.984074  3.009454 2.119691   1
102.409104   157.121657  0.100131  481.364874  3.410870 2.396595   1
102.888772   163.220158  -0.756049  351.693165  3.973468 2.767399   1
103.368440   175.057443  -1.039690  219.777962  4.980796 3.416818   1
103.848107   186.846429  -1.619338  136.000103  6.307981 4.270424   1
104.327775   195.638256  3.940370  85.111392  8.019354 5.411641   1
104.807443   211.472203  3.411887  70.982717  8.750481 5.804379   1
105.287111   224.687038  -7.605103  57.415042  9.729354 6.336455   1
105.766779   191.673397  17.552171  47.863794  11.108589 7.699222   1
106.246447   229.803974  5.695295  41.415936  11.703942 7.689882   1
106.726115   208.916474  -0.868409  39.187488  12.255154 8.218358   1
107.205783   215.170225  8.658366  33.583162  13.370431 8.998332   1
107.685451   225.885597  18.503385  26.896729  15.126723 10.211088   1
108.165119   236.515964  32.912685  21.906760  17.024364 11.621007   1
108.644787   217.529597  8.867138  17.963375  19.317814 13.243501   1
109.124455   217.131537  22.010109  15.385256  21.359478 14.970620   1
109.604123   252.334311  14.355307  13.338892  22.875137 15.366152   1
110.083791   286.953363  -38.030099  11.910916  24.065923 15.227298   1
110.563459   225.616836  -37.284951  11.092620  25.823392 17.463200   1
111.043126   233.861909  17.022979  10.194660  27.748930 19.364352   1
111.522794   253.553253  -22.732118  8.801141  29.938135 19.964178   1
112.002462   253.302006  -25.514115  8.301538  31.238139 20.877262   1
112.482130   363.928463  28.640580  8.751446  30.501299 19.375330   1
112.961798   286.220421  80.732446  7.249721  35.187164 26.224698   1
113.441466   362.943562  40.842221  8.387245  31.798573 20.508808   1
113.921134   181.061616  25.339597  6.093792  43.729627 34.528530   1
114.400802   200.000000  0.000000  6.731013  36.649954 20.508401   0
114.880470   232.209735  25.868559  6.159531  40.765638 29.865297   1
115.360138   320.812246  16.674739  5.577722  42.394607 28.233841   1
115.839806   410.047240  -58.364965  4.957763  45.789991 27.725050   1
116.319474   274.226370  -48.636878  4.943229  46.056626 30.811329   1
116.799142   497.125141  -112.582926  4.436017  50.756653 29.360386   1
117.278810   189.924791  -104.770590  5.163878  45.965098 35.509946   1
117.758478   309.072405  160.780564  4.340508  54.602211 51.803102   1
118.238145   459.173552  -9.928690  5.499828  44.758423 27.097085   1
118.717813   388.881157  80.713060  5.809306  43.966657 29.999968   1
119.197481   200.000000  0.000000  4.303992  53.485178 35.345888   0
119.677149   269.721179  -80.271532  3.819140  57.292135 38.959103   1
120.156817   293.965522  57.282625  4.071839  57.379215 42.607168   1
120.636485   239.151465  112.560846  3.408451  68.098806 67.857131   1
121.116153   334.469137  -58.780294  2.866833  72.828512 47.542432   1
121.595821   220.287533  62.336863  2.153021  102.149914 90.660940   1
122.075489   200.000000  0.000000  1.835842  131.685394 419.812920   0
122.555157   200.000000  0.000000  3.431414  65.329640 38.402377   0
123.034825   247.141332  -107.379380  2.457834  83.715593 60.493428   1
123.514493   200.000000  0.000000  1.805641  116.366404 87.060154   0
123.994161   200.000000  0.000000  1.561463  -999.000000 -999.000000   -1
124.473829   200.000000  0.000000  1.918132  126.177165 2510.261369   0
124.953496   388.930224  57.835153  3.402666  69.816582 48.136415   1
125.433164   200.000000  0.000000  2.121983  107.015441 51.028467   999
125.912832   200.000000  0.000000  1.926962  102.078721 91.502485   0
126.392500   281.663091  78.089322  2.360142  96.589166 80.161800   1
126.872168   200.000000  0.000000  0.691428  -999.000000 -999.000000   -1
127.351836   417.148966  149.932285  1.531611  146.030973 121.599531   1
127.831504   200.000000  0.000000  1.524260  129.015999 94.060727   0
128.311172   200.000000  0.000000  1.263179  777.448986 190.633979   999
128.790840   200.000000  0.000000  2.078899  230.957658 58.208308   999
129.270508   200.000000  0.000000  0.684549  2167.449706 151.127968   999
129.750176   283.127048  77.601390  1.834642  124.933393 105.248643   1
